%OpenBCI Raw EEG Data
%Number of channels = 8
%Sample Rate = 250 Hz
%Board = OpenBCI_GUI$BoardCytonSerial
Sample Index, EXG Channel 0, EXG Channel 1, EXG Channel 2, EXG Channel 3, EXG Channel 4, EXG Channel 5, EXG Channel 6, EXG Channel 7, Accel Channel 0, Accel Channel 1, Accel Channel 2, Other, Other, Other, Other, Other, Other, Other, Analog Channel 0, Analog Channel 1, Analog Channel 2, Timestamp, Other, Timestamp (Formatted)
0.0, 0.0, 0.0, 0.0, 0.0, 0.0, 0.0, 0.0, 0.0, 0.0, 0.0, 0.0, 192.0, 0.0, 0.0, 0.0, 0.0, 0.0, 0.0, 0.0, 0.0, 0.0, 1.67863558781031E9, 0.0, 2023-03-12 11:39:47.810
1.0, -153727.16232862024, -187500.02235174447, -187500.02235174447, -164845.165889879, 154605.5411822249, 187500.0, 187500.0, 187500.0, 0.178, 0.262, 0.976, 192.0, 5.0, 144.0, 8.0, 48.0, 30.0, 128.0, 0.0, 0.0, 0.0, 1.6786355882981908E9, 0.0, 2023-03-12 11:39:48.298
2.0, -153802.7559283681, -187500.02235174447, -187500.02235174447, -164928.00145483034, 154491.4131750361, 187500.0, 187500.0, 187500.0, 0.178, 0.262, 0.976, 192.0, 0.0, 0.0, 0.0, 0.0, 0.0, 0.0, 0.0, 0.0, 0.0, 1.6786355882983177E9, 0.0, 2023-03-12 11:39:48.298
3.0, -153694.10409857085, -187500.02235174447, -187500.02235174447, -164784.5926624051, 154788.15493442476, 187500.0, 187500.0, 187500.0, 0.178, 0.262, 0.976, 192.0, 0.0, 0.0, 0.0, 0.0, 0.0, 0.0, 0.0, 0.0, 0.0, 1.6786355882983525E9, 0.0, 2023-03-12 11:39:48.298
4.0, -153594.4600217891, -187500.02235174447, -187500.02235174447, -164627.37049190648, 155091.73632761673, 187500.0, 187500.0, 187500.0, 0.178, 0.262, 0.976, 192.0, 0.0, 0.0, 0.0, 0.0, 0.0, 0.0, 0.0, 0.0, 0.0, 1.678635588298404E9, 0.0, 2023-03-12 11:39:48.298
5.0, -153690.21489503563, -187500.02235174447, -187500.02235174447, -164700.6171584865, 154980.35758499595, 187500.0, 187500.0, 187500.0, 0.178, 0.262, 0.976, 192.0, 0.0, 0.0, 0.0, 0.0, 0.0, 0.0, 0.0, 0.0, 0.0, 1.6786355882984192E9, 0.0, 2023-03-12 11:39:48.298
6.0, -153803.1582597683, -187500.02235174447, -187500.02235174447, -164817.0026918653, 154808.1373939678, 187500.0, 187500.0, 187500.0, 0.178, 0.262, 0.976, 192.0, 0.0, 0.0, 0.0, 0.0, 0.0, 0.0, 0.0, 0.0, 0.0, 1.6786355882984679E9, 0.0, 2023-03-12 11:39:48.298
7.0, -153725.86592744183, -187500.02235174447, -187500.02235174447, -164711.882437692, 155041.0425711921, 187500.0, 187500.0, 187500.0, 0.178, 0.262, 0.976, 192.0, 0.0, 0.0, 0.0, 0.0, 0.0, 0.0, 0.0, 0.0, 0.0, 1.6786355882984805E9, 0.0, 2023-03-12 11:39:48.298
8.0, -153597.92454217965, -187500.02235174447, -187500.02235174447, -164527.30173198006, 155391.92025565152, 187500.0, 187500.0, 187500.0, 0.168, 0.25, 0.972, 192.0, 5.0, 64.0, 7.0, 208.0, 30.0, 96.0, 0.0, 0.0, 0.0, 1.6786355882984931E9, 0.0, 2023-03-12 11:39:48.298
9.0, -153658.6765836092, -187500.02235174447, -187500.02235174447, -164555.75550267167, 155350.54717666475, 187500.0, 187500.0, 187500.0, 0.168, 0.25, 0.972, 192.0, 0.0, 0.0, 0.0, 0.0, 0.0, 0.0, 0.0, 0.0, 0.0, 1.67863558829853E9, 0.0, 2023-03-12 11:39:48.298
10.0, -153784.6063118704, -187500.02235174447, -187500.02235174447, -164686.89318739096, 155143.7711887087, 187500.0, 187500.0, 187500.0, 0.168, 0.25, 0.972, 192.0, 0.0, 0.0, 0.0, 0.0, 0.0, 0.0, 0.0, 0.0, 0.0, 1.6786355882985437E9, 0.0, 2023-03-12 11:39:48.298
11.0, -153736.2371368691, -187500.02235174447, -187500.02235174447, -164620.17323019187, 155306.2683708988, 187500.0, 187500.0, 187500.0, 0.168, 0.25, 0.972, 192.0, 0.0, 0.0, 0.0, 0.0, 0.0, 0.0, 0.0, 0.0, 0.0, 1.6786355882985575E9, 0.0, 2023-03-12 11:39:48.298
12.0, -153598.84096370233, -187500.02235174447, -187500.02235174447, -164426.09303308642, 155682.0458986814, 187500.0, 187500.0, 187500.0, 0.168, 0.25, 0.972, 192.0, 0.0, 0.0, 0.0, 0.0, 0.0, 0.0, 0.0, 0.0, 0.0, 1.6786355882985713E9, 0.0, 2023-03-12 11:39:48.298
13.0, -153625.0148564595, -187500.02235174447, -187500.02235174447, -164416.1465068038, 155714.4559281416, 187500.0, 187500.0, 187500.0, 0.168, 0.25, 0.972, 192.0, 0.0, 0.0, 0.0, 0.0, 0.0, 0.0, 0.0, 0.0, 0.0, 1.6786355882985852E9, 0.0, 2023-03-12 11:39:48.298
14.0, -153763.17098893775, -187500.02235174447, -187500.02235174447, -164557.81186316157, 155487.76453587587, 187500.0, 187500.0, 187500.0, 0.168, 0.25, 0.972, 192.0, 0.0, 0.0, 0.0, 0.0, 0.0, 0.0, 0.0, 0.0, 0.0, 1.6786355882985985E9, 0.0, 2023-03-12 11:39:48.298
15.0, -153755.05730570047, -187500.02235174447, -187500.02235174447, -164536.48829895118, 155568.70020254853, 187500.0, 187500.0, 187500.0, 0.168, 0.25, 0.972, 192.0, 0.0, 0.0, 0.0, 0.0, 0.0, 0.0, 0.0, 0.0, 0.0, 1.6786355882986298E9, 0.0, 2023-03-12 11:39:48.298
16.0, -153612.07319641986, -187500.02235174447, -187500.02235174447, -164340.41879658925, 155951.6079368124, 187500.0, 187500.0, 187500.0, 0.168, 0.25, 0.972, 192.0, 0.0, 0.0, 0.0, 0.0, 0.0, 0.0, 0.0, 0.0, 0.0, 1.6786355882988777E9, 0.0, 2023-03-12 11:39:48.298
17.0, -153597.36574856826, -187500.02235174447, -187500.02235174447, -164282.99716508357, 156067.099400413, 187500.0, 187500.0, 187500.0, 0.168, 0.25, 0.972, 192.0, 0.0, 0.0, 0.0, 0.0, 0.0, 0.0, 0.0, 0.0, 0.0, 1.6786355882988923E9, 0.0, 2023-03-12 11:39:48.298
18.0, -153734.0913694014, -187500.02235174447, -187500.02235174447, -164418.09110857145, 155846.4429791502, 187500.0, 187500.0, 187500.0, 0.156, 0.248, 0.964, 192.0, 4.0, 224.0, 7.0, 192.0, 30.0, 32.0, 0.0, 0.0, 0.0, 1.678635588298906E9, 0.0, 2023-03-12 11:39:48.298
19.0, -153759.795875525, -187500.02235174447, -187500.02235174447, -164437.1124431029, 155850.42158966322, 187500.0, 187500.0, 187500.0, 0.156, 0.248, 0.964, 192.0, 0.0, 0.0, 0.0, 0.0, 0.0, 0.0, 0.0, 0.0, 0.0, 1.6786355882989204E9, 0.0, 2023-03-12 11:39:48.298
20.0, -153620.72332152407, -187500.02235174447, -187500.02235174447, -164250.36361817882, 156217.95132374184, 187500.0, 187500.0, 187500.0, 0.156, 0.248, 0.964, 192.0, 0.0, 0.0, 0.0, 0.0, 0.0, 0.0, 0.0, 0.0, 0.0, 1.678635588298934E9, 0.0, 2023-03-12 11:39:48.298
21.0, -153571.9518151226, -187500.02235174447, -187500.02235174447, -164152.6864949091, 156407.56117195621, 187500.0, 187500.0, 187500.0, 0.156, 0.248, 0.964, 192.0, 0.0, 0.0, 0.0, 0.0, 0.0, 0.0, 0.0, 0.0, 0.0, 1.6786355882989476E9, 0.0, 2023-03-12 11:39:48.298
22.0, -153702.44129925268, -187500.02235174447, -187500.02235174447, -164272.6259556563, 156208.76475677072, 187500.0, 187500.0, 187500.0, 0.156, 0.248, 0.964, 192.0, 0.0, 0.0, 0.0, 0.0, 0.0, 0.0, 0.0, 0.0, 0.0, 1.6786355882989712E9, 0.0, 2023-03-12 11:39:48.298
23.0, -153765.85319827238, -187500.02235174447, -187500.02235174447, -164334.9873226866, 156138.5132239477, 187500.0, 187500.0, 187500.0, 0.156, 0.248, 0.964, 192.0, 0.0, 0.0, 0.0, 0.0, 0.0, 0.0, 0.0, 0.0, 0.0, 1.6786355882989917E9, 0.0, 2023-03-12 11:39:48.298
24.0, -153643.3656386573, -187500.02235174447, -187500.02235174447, -164171.84193990732, 156472.4259343655, 187500.0, 187500.0, 187500.0, 0.156, 0.248, 0.964, 192.0, 0.0, 0.0, 0.0, 0.0, 0.0, 0.0, 0.0, 0.0, 0.0, 1.6786355882990208E9, 0.0, 2023-03-12 11:39:48.299
25.0, -153558.65252717168, -187500.02235174447, -187500.02235174447, -164033.976380107, 156737.987010239, 187500.0, 187500.0, 187500.0, 0.156, 0.248, 0.964, 192.0, 0.0, 0.0, 0.0, 0.0, 0.0, 0.0, 0.0, 0.0, 0.0, 1.6786355882990427E9, 0.0, 2023-03-12 11:39:48.299
26.0, -153669.36071745883, -187500.02235174447, -187500.02235174447, -164127.83135507483, 156585.212836887, 187500.0, 187500.0, 187500.0, 0.156, 0.248, 0.964, 192.0, 0.0, 0.0, 0.0, 0.0, 0.0, 0.0, 0.0, 0.0, 0.0, 1.6786355882990644E9, 0.0, 2023-03-12 11:39:48.299
27.0, -153758.32066039095, -187500.02235174447, -187500.02235174447, -164222.9603794766, 156452.08584691118, 187500.0, 187500.0, 187500.0, 0.154, 0.248, 0.976, 192.0, 4.0, 208.0, 7.0, 192.0, 30.0, 128.0, 0.0, 0.0, 0.0, 1.678635588299086E9, 0.0, 2023-03-12 11:39:48.299
28.0, -153659.83887432085, -187500.02235174447, -187500.02235174447, -164091.2415494015, 156731.08032120232, 187500.0, 187500.0, 187500.0, 0.154, 0.248, 0.976, 192.0, 0.0, 0.0, 0.0, 0.0, 0.0, 0.0, 0.0, 0.0, 0.0, 1.6786355882991085E9, 0.0, 2023-03-12 11:39:48.299
29.0, -153551.36585847926, -187500.02235174447, -187500.02235174447, -163924.76575669835, 157049.81619713502, 187500.0, 187500.0, 187500.0, 0.154, 0.248, 0.976, 192.0, 0.0, 0.0, 0.0, 0.0, 0.0, 0.0, 0.0, 0.0, 0.0, 1.6786355882991223E9, 0.0, 2023-03-12 11:39:48.299
30.0, -153637.24126067656, -187500.02235174447, -187500.02235174447, -163982.36620215967, 156959.11281813536, 187500.0, 187500.0, 187500.0, 0.154, 0.248, 0.976, 192.0, 0.0, 0.0, 0.0, 0.0, 0.0, 0.0, 0.0, 0.0, 0.0, 1.6786355882991357E9, 0.0, 2023-03-12 11:39:48.299
31.0, -153753.00094521057, -187500.02235174447, -187500.02235174447, -164099.9363779946, 156778.22015025857, 187500.0, 187500.0, 187500.0, 0.154, 0.248, 0.976, 192.0, 0.0, 0.0, 0.0, 0.0, 0.0, 0.0, 0.0, 0.0, 0.0, 1.6786355882992032E9, 0.0, 2023-03-12 11:39:48.299
32.0, -153682.81646762093, -187500.02235174447, -187500.02235174447, -164003.3991936921, 156991.47814410666, 187500.0, 187500.0, 187500.0, 0.154, 0.248, 0.976, 192.0, 0.0, 0.0, 0.0, 0.0, 0.0, 0.0, 0.0, 0.0, 0.0, 1.6786355882992172E9, 0.0, 2023-03-12 11:39:48.299
33.0, -153549.57771892284, -187500.02235174447, -187500.02235174447, -163814.52695304478, 157350.55891878117, 187500.0, 187500.0, 187500.0, 0.154, 0.248, 0.976, 192.0, 0.0, 0.0, 0.0, 0.0, 0.0, 0.0, 0.0, 0.0, 0.0, 1.6786355882992303E9, 0.0, 2023-03-12 11:39:48.299
34.0, -153602.66311200417, -187500.02235174447, -187500.02235174447, -163833.61534280961, 157328.8330231706, 187500.0, 187500.0, 187500.0, 0.154, 0.248, 0.976, 192.0, 0.0, 0.0, 0.0, 0.0, 0.0, 0.0, 0.0, 0.0, 0.0, 1.6786355882992442E9, 0.0, 2023-03-12 11:39:48.299
35.0, -153734.35959033485, -187500.02235174447, -187500.02235174447, -163969.1563211866, 157116.29028514508, 187500.0, 187500.0, 187500.0, 0.154, 0.248, 0.976, 192.0, 0.0, 0.0, 0.0, 0.0, 0.0, 0.0, 0.0, 0.0, 0.0, 1.6786355882992733E9, 0.0, 2023-03-12 11:39:48.299
36.0, -153699.2226480511, -187500.02235174447, -187500.02235174447, -163916.02622461633, 157255.56400484612, 187500.0, 187500.0, 187500.0, 0.154, 0.248, 0.976, 192.0, 0.0, 0.0, 0.0, 0.0, 0.0, 0.0, 0.0, 0.0, 0.0, 1.6786355882992857E9, 0.0, 2023-03-12 11:39:48.299
37.0, -153559.3901347387, -187500.02235174447, -187500.02235174447, -163721.25312343278, 157633.3084861408, 187500.0, 187500.0, 187500.0, 0.156, 0.25, 0.982, 192.0, 4.0, 224.0, 7.0, 208.0, 30.0, 176.0, 0.0, 0.0, 0.0, 1.6786355882992983E9, 0.0, 2023-03-12 11:39:48.299
38.0, -153575.1928180686, -187500.02235174447, -187500.02235174447, -163700.30953887815, 157688.6737571566, 187500.0, 187500.0, 187500.0, 0.156, 0.25, 0.982, 192.0, 0.0, 0.0, 0.0, 0.0, 0.0, 0.0, 0.0, 0.0, 0.0, 1.6786355882993116E9, 0.0, 2023-03-12 11:39:48.299
39.0, -153713.25954356903, -187500.02235174447, -187500.02235174447, -163843.00307548084, 157462.7646759468, 187500.0, 187500.0, 187500.0, 0.156, 0.25, 0.982, 192.0, 0.0, 0.0, 0.0, 0.0, 0.0, 0.0, 0.0, 0.0, 0.0, 1.6786355882993245E9, 0.0, 2023-03-12 11:39:48.299
40.0, -153711.71727320162, -187500.02235174447, -187500.02235174447, -163836.18579342196, 157524.25432494335, 187500.0, 187500.0, 187500.0, 0.156, 0.25, 0.982, 192.0, 0.0, 0.0, 0.0, 0.0, 0.0, 0.0, 0.0, 0.0, 0.0, 1.678635588299337E9, 0.0, 2023-03-12 11:39:48.299
41.0, -153565.58156795282, -187500.02235174447, -187500.02235174447, -163642.68674167237, 157905.6197888398, 187500.0, 187500.0, 187500.0, 0.156, 0.25, 0.982, 192.0, 0.0, 0.0, 0.0, 0.0, 0.0, 0.0, 0.0, 0.0, 0.0, 1.6786355882993493E9, 0.0, 2023-03-12 11:39:48.299
42.0, -153542.76043686396, -187500.02235174447, -187500.02235174447, -163574.44686585033, 158042.52422362857, 187500.0, 187500.0, 187500.0, 0.156, 0.25, 0.982, 192.0, 0.0, 0.0, 0.0, 0.0, 0.0, 0.0, 0.0, 0.0, 0.0, 1.6786355882993617E9, 0.0, 2023-03-12 11:39:48.299
43.0, -153677.94378732966, -187500.02235174447, -187500.02235174447, -163709.36199538255, 157827.2545727795, 187500.0, 187500.0, 187500.0, 0.156, 0.25, 0.982, 192.0, 0.0, 0.0, 0.0, 0.0, 0.0, 0.0, 0.0, 0.0, 0.0, 1.6786355882993772E9, 0.0, 2023-03-12 11:39:48.299
44.0, -153711.9854941351, -187500.02235174447, -187500.02235174447, -163741.77202484276, 157811.00485456048, 187500.0, 187500.0, 187500.0, 0.156, 0.25, 0.982, 192.0, 0.0, 0.0, 0.0, 0.0, 0.0, 0.0, 0.0, 0.0, 0.0, 1.67863558829939E9, 0.0, 2023-03-12 11:39:48.299
45.0, -153581.0936786048, -187500.02235174447, -187500.02235174447, -163561.72872325525, 158168.2751379341, 187500.0, 187500.0, 187500.0, 0.156, 0.25, 0.982, 192.0, 0.0, 0.0, 0.0, 0.0, 0.0, 0.0, 0.0, 0.0, 0.0, 1.6786355882994025E9, 0.0, 2023-03-12 11:39:48.299
46.0, -153523.8955645437, -187500.02235174447, -187500.02235174447, -163452.0710649575, 158378.29212883618, 187500.0, 187500.0, 187500.0, 0.156, 0.25, 0.982, 192.0, 0.0, 0.0, 0.0, 0.0, 0.0, 0.0, 0.0, 0.0, 0.0, 1.678635588299432E9, 0.0, 2023-03-12 11:39:48.299
47.0, -153648.6630020932, -187500.02235174447, -187500.02235174447, -163565.28265062365, 158193.57731265752, 187500.0, 187500.0, 187500.0, 0.14400000000000002, 0.25, 0.986, 192.0, 4.0, 128.0, 7.0, 208.0, 30.0, 208.0, 0.0, 0.0, 0.0, 1.678635588299445E9, 0.0, 2023-03-12 11:39:48.299
48.0, -153713.34895054688, -187500.02235174447, -187500.02235174447, -163633.54487819015, 158109.19947733873, 187500.0, 187500.0, 187500.0, 0.14400000000000002, 0.25, 0.986, 192.0, 0.0, 0.0, 0.0, 0.0, 0.0, 0.0, 0.0, 0.0, 0.0, 1.6786355882994583E9, 0.0, 2023-03-12 11:39:48.299
49.0, -153595.8011264564, -187500.02235174447, -187500.02235174447, -163477.14972223638, 158429.87995503904, 187500.0, 187500.0, 187500.0, 0.14400000000000002, 0.25, 0.986, 192.0, 0.0, 0.0, 0.0, 0.0, 0.0, 0.0, 0.0, 0.0, 0.0, 1.6786355882994707E9, 0.0, 2023-03-12 11:39:48.299
50.0, -153507.22116318002, -187500.02235174447, -187500.02235174447, -163332.71274956618, 158706.61690314018, 187500.0, 187500.0, 187500.0, 0.14400000000000002, 0.25, 0.986, 192.0, 0.0, 0.0, 0.0, 0.0, 0.0, 0.0, 0.0, 0.0, 0.0, 1.6786355882994833E9, 0.0, 2023-03-12 11:39:48.299
51.0, -153611.93908595314, -187500.02235174447, -187500.02235174447, -163417.3811575629, 158567.7231630949, 187500.0, 187500.0, 187500.0, 0.14400000000000002, 0.25, 0.986, 192.0, 0.0, 0.0, 0.0, 0.0, 0.0, 0.0, 0.0, 0.0, 0.0, 1.6786355882994962E9, 0.0, 2023-03-12 11:39:48.299
52.0, -153709.25858131156, -187500.02235174447, -187500.02235174447, -163519.48392623474, 158420.29105666772, 187500.0, 187500.0, 187500.0, 0.14400000000000002, 0.25, 0.986, 192.0, 0.0, 0.0, 0.0, 0.0, 0.0, 0.0, 0.0, 0.0, 0.0, 1.6786355882995086E9, 0.0, 2023-03-12 11:39:48.299
53.0, -153619.76219651249, -187500.02235174447, -187500.02235174447, -163395.7670206746, 158685.04746974082, 187500.0, 187500.0, 187500.0, 0.14400000000000002, 0.25, 0.986, 192.0, 0.0, 0.0, 0.0, 0.0, 0.0, 0.0, 0.0, 0.0, 0.0, 1.6786355882995212E9, 0.0, 2023-03-12 11:39:48.299
54.0, -153505.65654106817, -187500.02235174447, -187500.02235174447, -163221.9822075346, 159017.46261328013, 187500.0, 187500.0, 187500.0, 0.14400000000000002, 0.25, 0.986, 192.0, 0.0, 0.0, 0.0, 0.0, 0.0, 0.0, 0.0, 0.0, 0.0, 1.6786355882995338E9, 0.0, 2023-03-12 11:39:48.299
55.0, -153580.37842278223, -187500.02235174447, -187500.02235174447, -163270.86547265833, 158942.33840016584, 187500.0, 187500.0, 187500.0, 0.14400000000000002, 0.25, 0.986, 192.0, 0.0, 0.0, 0.0, 0.0, 0.0, 0.0, 0.0, 0.0, 0.0, 1.6786355882995625E9, 0.0, 2023-03-12 11:39:48.299
56.0, -153691.84657238086, -187500.02235174447, -187500.02235174447, -163390.89434038335, 158753.84613917425, 187500.0, 187500.0, 187500.0, 0.14400000000000002, 0.25, 0.986, 192.0, 0.0, 0.0, 0.0, 0.0, 0.0, 0.0, 0.0, 0.0, 0.0, 1.6786355882995744E9, 0.0, 2023-03-12 11:39:48.299
57.0, -153619.33751336785, -187500.02235174447, -187500.02235174447, -163300.01214742806, 158956.53175789496, 187500.0, 187500.0, 187500.0, 0.14400000000000002, 0.252, 0.984, 192.0, 4.0, 128.0, 7.0, 224.0, 30.0, 192.0, 0.0, 0.0, 0.0, 1.6786355882995863E9, 0.0, 2023-03-12 11:39:48.299
58.0, -153494.59242756278, -187500.02235174447, -187500.02235174447, -163113.50919169298, 159317.71359654827, 187500.0, 187500.0, 187500.0, 0.14400000000000002, 0.252, 0.984, 192.0, 0.0, 0.0, 0.0, 0.0, 0.0, 0.0, 0.0, 0.0, 0.0, 1.6786355882995996E9, 0.0, 2023-03-12 11:39:48.299
59.0, -153543.81096885336, -187500.02235174447, -187500.02235174447, -163123.96980809807, 159313.46676510177, 187500.0, 187500.0, 187500.0, 0.14400000000000002, 0.252, 0.984, 192.0, 0.0, 0.0, 0.0, 0.0, 0.0, 0.0, 0.0, 0.0, 0.0, 1.678635588299612E9, 0.0, 2023-03-12 11:39:48.299
60.0, -153680.62599666428, -187500.02235174447, -187500.02235174447, -163261.85771964287, 159095.2019804957, 187500.0, 187500.0, 187500.0, 0.14400000000000002, 0.252, 0.984, 192.0, 0.0, 0.0, 0.0, 0.0, 0.0, 0.0, 0.0, 0.0, 0.0, 1.6786355882996387E9, 0.0, 2023-03-12 11:39:48.299
61.0, -153656.3296504414, -187500.02235174447, -187500.02235174447, -163219.56821913342, 159213.1744877308, 187500.0, 187500.0, 187500.0, 0.14400000000000002, 0.252, 0.984, 192.0, 0.0, 0.0, 0.0, 0.0, 0.0, 0.0, 0.0, 0.0, 0.0, 1.6786355882996783E9, 0.0, 2023-03-12 11:39:48.299
62.0, -153513.12202371622, -187500.02235174447, -187500.02235174447, -163023.65517898265, 159593.98115801587, 187500.0, 187500.0, 187500.0, 0.14400000000000002, 0.252, 0.984, 192.0, 0.0, 0.0, 0.0, 0.0, 0.0, 0.0, 0.0, 0.0, 0.0, 1.6786355882997112E9, 0.0, 2023-03-12 11:39:48.299
63.0, -153519.42521565262, -187500.02235174447, -187500.02235174447, -162989.34525124377, 159669.59710950818, 187500.0, 187500.0, 187500.0, 0.14400000000000002, 0.252, 0.984, 192.0, 0.0, 0.0, 0.0, 0.0, 0.0, 0.0, 0.0, 0.0, 0.0, 1.6786355882997231E9, 0.0, 2023-03-12 11:39:48.299
64.0, -153655.39087717424, -187500.02235174447, -187500.02235174447, -163127.4119767442, 159445.63263006601, 187500.0, 187500.0, 187500.0, 0.14400000000000002, 0.252, 0.984, 192.0, 0.0, 0.0, 0.0, 0.0, 0.0, 0.0, 0.0, 0.0, 0.0, 1.6786355882997372E9, 0.0, 2023-03-12 11:39:48.299
65.0, -153657.3801824308, -187500.02235174447, -187500.02235174447, -163124.52860170946, 159491.52076143274, 187500.0, 187500.0, 187500.0, 0.14400000000000002, 0.252, 0.984, 192.0, 0.0, 0.0, 0.0, 0.0, 0.0, 0.0, 0.0, 0.0, 0.0, 1.6786355882997496E9, 0.0, 2023-03-12 11:39:48.299
66.0, -153518.5311458744, -187500.02235174447, -187500.02235174447, -162933.3094278943, 159870.69575437257, 187500.0, 187500.0, 187500.0, 0.14400000000000002, 0.252, 0.984, 192.0, 0.0, 0.0, 0.0, 0.0, 0.0, 0.0, 0.0, 0.0, 0.0, 1.678635588299778E9, 0.0, 2023-03-12 11:39:48.299
67.0, -153488.95978796005, -187500.02235174447, -187500.02235174447, -162854.05014205578, 160028.00733184902, 187500.0, 187500.0, 187500.0, 0.138, 0.248, 0.98, 192.0, 4.0, 80.0, 7.0, 192.0, 30.0, 160.0, 0.0, 0.0, 0.0, 1.6786355882998106E9, 0.0, 2023-03-12 11:39:48.299
68.0, -153624.67958029266, -187500.02235174447, -187500.02235174447, -162982.50561744042, 159817.29743686886, 187500.0, 187500.0, 187500.0, 0.138, 0.248, 0.98, 192.0, 0.0, 0.0, 0.0, 0.0, 0.0, 0.0, 0.0, 0.0, 0.0, 1.6786355882998235E9, 0.0, 2023-03-12 11:39:48.299
69.0, -153668.46664768062, -187500.02235174447, -187500.02235174447, -163024.14691736066, 159779.18771257254, 187500.0, 187500.0, 187500.0, 0.138, 0.248, 0.98, 192.0, 0.0, 0.0, 0.0, 0.0, 0.0, 0.0, 0.0, 0.0, 0.0, 1.6786355882998357E9, 0.0, 2023-03-12 11:39:48.299
70.0, -153536.61370713875, -187500.02235174447, -187500.02235174447, -162848.2386884974, 160131.048873788, 187500.0, 187500.0, 187500.0, 0.138, 0.248, 0.98, 192.0, 0.0, 0.0, 0.0, 0.0, 0.0, 0.0, 0.0, 0.0, 0.0, 1.6786355882998648E9, 0.0, 2023-03-12 11:39:48.299
71.0, -153469.67023249512, -187500.02235174447, -187500.02235174447, -162728.18746902794, 160363.17173995636, 187500.0, 187500.0, 187500.0, 0.138, 0.248, 0.98, 192.0, 0.0, 0.0, 0.0, 0.0, 0.0, 0.0, 0.0, 0.0, 0.0, 1.6786355882998767E9, 0.0, 2023-03-12 11:39:48.299
72.0, -153589.43087928664, -187500.02235174447, -187500.02235174447, -162835.49819415787, 160189.54338902753, 187500.0, 187500.0, 187500.0, 0.138, 0.248, 0.98, 192.0, 0.0, 0.0, 0.0, 0.0, 0.0, 0.0, 0.0, 0.0, 0.0, 1.6786355882998888E9, 0.0, 2023-03-12 11:39:48.299
73.0, -153657.93897604215, -187500.02235174447, -187500.02235174447, -162908.0072531709, 160090.99454772408, 187500.0, 187500.0, 187500.0, 0.138, 0.248, 0.98, 192.0, 0.0, 0.0, 0.0, 0.0, 0.0, 0.0, 0.0, 0.0, 0.0, 1.6786355882999012E9, 0.0, 2023-03-12 11:39:48.299
74.0, -153545.0403147984, -187500.02235174447, -187500.02235174447, -162755.59070773015, 160399.20275201832, 187500.0, 187500.0, 187500.0, 0.138, 0.248, 0.98, 192.0, 0.0, 0.0, 0.0, 0.0, 0.0, 0.0, 0.0, 0.0, 0.0, 1.6786355882999134E9, 0.0, 2023-03-12 11:39:48.299
75.0, -153452.86172066472, -187500.02235174447, -187500.02235174447, -162604.91759835693, 160689.79778168176, 187500.0, 187500.0, 187500.0, 0.138, 0.248, 0.98, 192.0, 0.0, 0.0, 0.0, 0.0, 0.0, 0.0, 0.0, 0.0, 0.0, 1.6786355882999256E9, 0.0, 2023-03-12 11:39:48.299
76.0, -153553.35516373577, -187500.02235174447, -187500.02235174447, -162683.30516616168, 160566.7514284553, 187500.0, 187500.0, 187500.0, 0.138, 0.248, 0.98, 192.0, 0.0, 0.0, 0.0, 0.0, 0.0, 0.0, 0.0, 0.0, 0.0, 1.6786355882999516E9, 0.0, 2023-03-12 11:39:48.299
77.0, -153661.35879294382, -187500.02235174447, -187500.02235174447, -162794.10276342664, 160406.28825501064, 187500.0, 187500.0, 187500.0, 0.138, 0.25, 0.978, 192.0, 4.0, 80.0, 7.0, 208.0, 30.0, 144.0, 0.0, 0.0, 0.0, 1.6786355882999642E9, 0.0, 2023-03-12 11:39:48.299
78.0, -153579.7525739375, -187500.02235174447, -187500.02235174447, -162681.60643358307, 160654.54908067573, 187500.0, 187500.0, 187500.0, 0.138, 0.25, 0.978, 192.0, 0.0, 0.0, 0.0, 0.0, 0.0, 0.0, 0.0, 0.0, 0.0, 1.6786355882999773E9, 0.0, 2023-03-12 11:39:48.299
79.0, -153455.05219162133, -187500.02235174447, -187500.02235174447, -162502.92658840737, 160996.5978260753, 187500.0, 187500.0, 187500.0, 0.138, 0.25, 0.978, 192.0, 0.0, 0.0, 0.0, 0.0, 0.0, 0.0, 0.0, 0.0, 0.0, 1.6786355882999892E9, 0.0, 2023-03-12 11:39:48.299
80.0, -153521.3474656758, -187500.02235174447, -187500.02235174447, -162543.15972842692, 160938.41623525813, 187500.0, 187500.0, 187500.0, 0.138, 0.25, 0.978, 192.0, 0.0, 0.0, 0.0, 0.0, 0.0, 0.0, 0.0, 0.0, 0.0, 1.6786355883000011E9, 0.0, 2023-03-12 11:39:48.300
81.0, -153641.39868514522, -187500.02235174447, -187500.02235174447, -162669.38002936603, 160739.12808169462, 187500.0, 187500.0, 187500.0, 0.138, 0.25, 0.978, 192.0, 0.0, 0.0, 0.0, 0.0, 0.0, 0.0, 0.0, 0.0, 0.0, 1.6786355883000133E9, 0.0, 2023-03-12 11:39:48.300
82.0, -153586.48044901853, -187500.02235174447, -187500.02235174447, -162591.372441217, 160917.8749821037, 187500.0, 187500.0, 187500.0, 0.138, 0.25, 0.978, 192.0, 0.0, 0.0, 0.0, 0.0, 0.0, 0.0, 0.0, 0.0, 0.0, 1.6786355883000257E9, 0.0, 2023-03-12 11:39:48.300
83.0, -153452.14646484214, -187500.02235174447, -187500.02235174447, -162398.76745924563, 161290.38915519585, 187500.0, 187500.0, 187500.0, 0.138, 0.25, 0.978, 192.0, 0.0, 0.0, 0.0, 0.0, 0.0, 0.0, 0.0, 0.0, 0.0, 1.678635588300052E9, 0.0, 2023-03-12 11:39:48.300
84.0, -153486.65755828115, -187500.02235174447, -187500.02235174447, -162396.91226445584, 161309.05286181605, 187500.0, 187500.0, 187500.0, 0.138, 0.25, 0.978, 192.0, 0.0, 0.0, 0.0, 0.0, 0.0, 0.0, 0.0, 0.0, 0.0, 1.678635588300063E9, 0.0, 2023-03-12 11:39:48.300
85.0, -153623.71845528108, -187500.02235174447, -187500.02235174447, -162538.35410336903, 161086.20596959663, 187500.0, 187500.0, 187500.0, 0.138, 0.25, 0.978, 192.0, 0.0, 0.0, 0.0, 0.0, 0.0, 0.0, 0.0, 0.0, 0.0, 1.6786355883001182E9, 0.0, 2023-03-12 11:39:48.300
86.0, -153605.255914361, -187500.02235174447, -187500.02235174447, -162505.4523355308, 161187.12409581235, 187500.0, 187500.0, 187500.0, 0.138, 0.246, 0.982, 192.0, 4.0, 80.0, 7.0, 176.0, 30.0, 176.0, 0.0, 0.0, 0.0, 1.6786355883001332E9, 0.0, 2023-03-12 11:39:48.300
87.0, -153462.4282672916, -187500.02235174447, -187500.02235174447, -162306.07477498948, 161571.32823125462, 187500.0, 187500.0, 187500.0, 0.138, 0.246, 0.982, 192.0, 0.0, 0.0, 0.0, 0.0, 0.0, 0.0, 0.0, 0.0, 0.0, 1.6786355883001504E9, 0.0, 2023-03-12 11:39:48.300
88.0, -153459.45548527903, -187500.02235174447, -187500.02235174447, -162259.6054982669, 161669.74296209135, 187500.0, 187500.0, 187500.0, 0.138, 0.246, 0.982, 192.0, 0.0, 0.0, 0.0, 0.0, 0.0, 0.0, 0.0, 0.0, 0.0, 1.6786355883001697E9, 0.0, 2023-03-12 11:39:48.300
89.0, -153594.84000144483, -187500.02235174447, -187500.02235174447, -162394.94531094376, 161448.9077268729, 187500.0, 187500.0, 187500.0, 0.138, 0.246, 0.982, 192.0, 0.0, 0.0, 0.0, 0.0, 0.0, 0.0, 0.0, 0.0, 0.0, 1.678635588300189E9, 0.0, 2023-03-12 11:39:48.300
90.0, -153608.02753067345, -187500.02235174447, -187500.02235174447, -162403.14840115886, 161471.77356145068, 187500.0, 187500.0, 187500.0, 0.138, 0.246, 0.982, 192.0, 0.0, 0.0, 0.0, 0.0, 0.0, 0.0, 0.0, 0.0, 0.0, 1.6786355883002083E9, 0.0, 2023-03-12 11:39:48.300
91.0, -153470.74311622896, -187500.02235174447, -187500.02235174447, -162215.1925820342, 161843.97481012045, 187500.0, 187500.0, 187500.0, 0.138, 0.246, 0.982, 192.0, 0.0, 0.0, 0.0, 0.0, 0.0, 0.0, 0.0, 0.0, 0.0, 1.6786355883002524E9, 0.0, 2023-03-12 11:39:48.300
92.0, -153432.14165355466, -187500.02235174447, -187500.02235174447, -162126.90319143573, 162018.96661746106, 187500.0, 187500.0, 187500.0, 0.138, 0.246, 0.982, 192.0, 0.0, 0.0, 0.0, 0.0, 0.0, 0.0, 0.0, 0.0, 0.0, 1.678635588300304E9, 0.0, 2023-03-12 11:39:48.300
93.0, -153566.22976854202, -187500.02235174447, -187500.02235174447, -162252.58705050792, 161814.2469899949, 187500.0, 187500.0, 187500.0, 0.138, 0.246, 0.982, 192.0, 0.0, 0.0, 0.0, 0.0, 0.0, 0.0, 0.0, 0.0, 0.0, 1.6786355883003175E9, 0.0, 2023-03-12 11:39:48.300
94.0, -153619.5610308124, -187500.02235174447, -187500.02235174447, -162305.29246393353, 161759.30640212374, 187500.0, 187500.0, 187500.0, 0.138, 0.246, 0.982, 192.0, 0.0, 0.0, 0.0, 0.0, 0.0, 0.0, 0.0, 0.0, 0.0, 1.678635588300331E9, 0.0, 2023-03-12 11:39:48.300
95.0, -153490.79263100537, -187500.02235174447, -187500.02235174447, -162134.50278455054, 162103.29974929092, 187500.0, 187500.0, 187500.0, 0.138, 0.246, 0.982, 192.0, 0.0, 0.0, 0.0, 0.0, 0.0, 0.0, 0.0, 0.0, 0.0, 1.6786355883003469E9, 0.0, 2023-03-12 11:39:48.300
96.0, -153412.42741494506, -187500.02235174447, -187500.02235174447, -162004.25916960946, 162353.92985986828, 187500.0, 187500.0, 187500.0, 0.14, 0.25, 0.982, 192.0, 4.0, 96.0, 7.0, 208.0, 30.0, 176.0, 0.0, 0.0, 0.0, 1.6786355883003604E9, 0.0, 2023-03-12 11:39:48.300
97.0, -153526.57777387832, -187500.02235174447, -187500.02235174447, -162103.4115080132, 162192.8855410678, 187500.0, 187500.0, 187500.0, 0.14, 0.25, 0.982, 192.0, 0.0, 0.0, 0.0, 0.0, 0.0, 0.0, 0.0, 0.0, 0.0, 1.6786355883003917E9, 0.0, 2023-03-12 11:39:48.300
98.0, -153609.83802197434, -187500.02235174447, -187500.02235174447, -162187.92345379872, 162072.34258322034, 187500.0, 187500.0, 187500.0, 0.14, 0.25, 0.982, 192.0, 0.0, 0.0, 0.0, 0.0, 0.0, 0.0, 0.0, 0.0, 0.0, 1.6786355883004043E9, 0.0, 2023-03-12 11:39:48.300
99.0, -153503.488421856, -187500.02235174447, -187500.02235174447, -162045.2075654516, 162365.06102860702, 187500.0, 187500.0, 187500.0, 0.14, 0.25, 0.982, 192.0, 0.0, 0.0, 0.0, 0.0, 0.0, 0.0, 0.0, 0.0, 0.0, 1.6786355883004167E9, 0.0, 2023-03-12 11:39:48.300
100.0, -153398.63638861614, -187500.02235174447, -187500.02235174447, -161884.27500537338, 162673.96213697936, 187500.0, 187500.0, 187500.0, 0.14, 0.25, 0.982, 192.0, 0.0, 0.0, 0.0, 0.0, 0.0, 0.0, 0.0, 0.0, 0.0, 1.678635588300429E9, 0.0, 2023-03-12 11:39:48.300
101.0, -153491.4184798501, -187500.02235174447, -187500.02235174447, -161954.63829691868, 162568.1713304724, 187500.0, 187500.0, 187500.0, 0.14, 0.25, 0.982, 192.0, 0.0, 0.0, 0.0, 0.0, 0.0, 0.0, 0.0, 0.0, 0.0, 1.6786355883004413E9, 0.0, 2023-03-12 11:39:48.300
102.0, -153597.47750729055, -187500.02235174447, -187500.02235174447, -162067.38049595125, 162399.79563949056, 187500.0, 187500.0, 187500.0, 0.14, 0.25, 0.982, 192.0, 0.0, 0.0, 0.0, 0.0, 0.0, 0.0, 0.0, 0.0, 0.0, 1.6786355883004534E9, 0.0, 2023-03-12 11:39:48.300
103.0, -153516.40773015114, -187500.02235174447, -187500.02235174447, -161957.40991323112, 162632.09731961458, 187500.0, 187500.0, 187500.0, 0.14, 0.25, 0.982, 192.0, 0.0, 0.0, 0.0, 0.0, 0.0, 0.0, 0.0, 0.0, 0.0, 1.6786355883004656E9, 0.0, 2023-03-12 11:39:48.300
104.0, -153392.82493505775, -187500.02235174447, -187500.02235174447, -161774.01384997534, 162980.717477884, 187500.0, 187500.0, 187500.0, 0.14, 0.25, 0.982, 192.0, 0.0, 0.0, 0.0, 0.0, 0.0, 0.0, 0.0, 0.0, 0.0, 1.678635588300478E9, 0.0, 2023-03-12 11:39:48.300
105.0, -153452.39233403114, -187500.02235174447, -187500.02235174447, -161803.07111776725, 162941.84779427623, 187500.0, 187500.0, 187500.0, 0.14, 0.25, 0.982, 192.0, 0.0, 0.0, 0.0, 0.0, 0.0, 0.0, 0.0, 0.0, 0.0, 1.67863558830049E9, 0.0, 2023-03-12 11:39:48.300
106.0, -153581.76423093848, -187500.02235174447, -187500.02235174447, -161936.13105250968, 162733.7083499084, 187500.0, 187500.0, 187500.0, 0.14200000000000002, 0.248, 0.982, 192.0, 4.0, 112.0, 7.0, 192.0, 30.0, 176.0, 0.0, 0.0, 0.0, 1.6786355883005176E9, 0.0, 2023-03-12 11:39:48.300
107.0, -153540.03352404042, -187500.02235174447, -187500.02235174447, -161872.22741511196, 162891.77988669634, 187500.0, 187500.0, 187500.0, 0.14200000000000002, 0.248, 0.982, 192.0, 0.0, 0.0, 0.0, 0.0, 0.0, 0.0, 0.0, 0.0, 0.0, 1.6786355883005326E9, 0.0, 2023-03-12 11:39:48.300
108.0, -153400.04454851683, -187500.02235174447, -187500.02235174447, -161676.42613368348, 163270.2843273025, 187500.0, 187500.0, 187500.0, 0.14200000000000002, 0.248, 0.982, 192.0, 0.0, 0.0, 0.0, 0.0, 0.0, 0.0, 0.0, 0.0, 0.0, 1.6786355883005447E9, 0.0, 2023-03-12 11:39:48.300
109.0, -153426.77723488538, -187500.02235174447, -187500.02235174447, -161665.27261320027, 163307.83525798743, 187500.0, 187500.0, 187500.0, 0.14200000000000002, 0.248, 0.982, 192.0, 0.0, 0.0, 0.0, 0.0, 0.0, 0.0, 0.0, 0.0, 0.0, 1.678635588300557E9, 0.0, 2023-03-12 11:39:48.300
110.0, -153563.90518711868, -187500.02235174447, -187500.02235174447, -161805.10512651267, 163084.76484832345, 187500.0, 187500.0, 187500.0, 0.14200000000000002, 0.248, 0.982, 192.0, 0.0, 0.0, 0.0, 0.0, 0.0, 0.0, 0.0, 0.0, 0.0, 1.678635588300569E9, 0.0, 2023-03-12 11:39:48.300
111.0, -153548.52718693344, -187500.02235174447, -187500.02235174447, -161781.61344309014, 163167.39924757474, 187500.0, 187500.0, 187500.0, 0.14200000000000002, 0.248, 0.982, 192.0, 0.0, 0.0, 0.0, 0.0, 0.0, 0.0, 0.0, 0.0, 0.0, 1.6786355883006043E9, 0.0, 2023-03-12 11:39:48.300
112.0, -153408.82878408776, -187500.02235174447, -187500.02235174447, -161587.60030121807, 163548.0047521597, 187500.0, 187500.0, 187500.0, 0.14200000000000002, 0.248, 0.982, 192.0, 0.0, 0.0, 0.0, 0.0, 0.0, 0.0, 0.0, 0.0, 0.0, 1.678635588300618E9, 0.0, 2023-03-12 11:39:48.300
113.0, -153396.69178684853, -187500.02235174447, -187500.02235174447, -161527.49646037776, 163667.98891639579, 187500.0, 187500.0, 187500.0, 0.14200000000000002, 0.248, 0.982, 192.0, 0.0, 0.0, 0.0, 0.0, 0.0, 0.0, 0.0, 0.0, 0.0, 1.6786355883006313E9, 0.0, 2023-03-12 11:39:48.300
114.0, -153534.9373263046, -187500.02235174447, -187500.02235174447, -161661.58457536515, 163449.76883527864, 187500.0, 187500.0, 187500.0, 0.14200000000000002, 0.248, 0.982, 192.0, 0.0, 0.0, 0.0, 0.0, 0.0, 0.0, 0.0, 0.0, 0.0, 1.6786355883006475E9, 0.0, 2023-03-12 11:39:48.300
115.0, -153563.90518711868, -187500.02235174447, -187500.02235174447, -161685.1209622766, 163448.04775095556, 187500.0, 187500.0, 187500.0, 0.14200000000000002, 0.248, 0.982, 192.0, 0.0, 0.0, 0.0, 0.0, 0.0, 0.0, 0.0, 0.0, 0.0, 1.678635588300661E9, 0.0, 2023-03-12 11:39:48.300
116.0, -153426.03962731836, -187500.02235174447, -187500.02235174447, -161499.31091061962, 163813.47642105538, 187500.0, 187500.0, 187500.0, 0.14200000000000002, 0.246, 0.986, 192.0, 4.0, 112.0, 7.0, 176.0, 30.0, 208.0, 0.0, 0.0, 0.0, 1.6786355883006747E9, 0.0, 2023-03-12 11:39:48.300
117.0, -153374.56355983778, -187500.02235174447, -187500.02235174447, -161397.8339907925, 164008.74126061695, 187500.0, 187500.0, 187500.0, 0.14200000000000002, 0.246, 0.986, 192.0, 0.0, 0.0, 0.0, 0.0, 0.0, 0.0, 0.0, 0.0, 0.0, 1.678635588300689E9, 0.0, 2023-03-12 11:39:48.300
118.0, -153502.7284625445, -187500.02235174447, -187500.02235174447, -161517.19230618386, 163815.175153634, 187500.0, 187500.0, 187500.0, 0.14200000000000002, 0.246, 0.986, 192.0, 0.0, 0.0, 0.0, 0.0, 0.0, 0.0, 0.0, 0.0, 0.0, 1.6786355883007207E9, 0.0, 2023-03-12 11:39:48.300
119.0, -153563.70402141858, -187500.02235174447, -187500.02235174447, -161579.19604530287, 163742.62139113207, 187500.0, 187500.0, 187500.0, 0.14200000000000002, 0.246, 0.986, 192.0, 0.0, 0.0, 0.0, 0.0, 0.0, 0.0, 0.0, 0.0, 0.0, 1.678635588300733E9, 0.0, 2023-03-12 11:39:48.300
120.0, -153442.08817983727, -187500.02235174447, -187500.02235174447, -161416.2518282237, 164073.1813398816, 187500.0, 187500.0, 187500.0, 0.14200000000000002, 0.246, 0.986, 192.0, 0.0, 0.0, 0.0, 0.0, 0.0, 0.0, 0.0, 0.0, 0.0, 1.6786355883007452E9, 0.0, 2023-03-12 11:39:48.300
121.0, -153355.4528183285, -187500.02235174447, -187500.02235174447, -161276.03933525557, 164340.82112798945, 187500.0, 187500.0, 187500.0, 0.14200000000000002, 0.246, 0.986, 192.0, 0.0, 0.0, 0.0, 0.0, 0.0, 0.0, 0.0, 0.0, 0.0, 1.6786355887782807E9, 0.0, 2023-03-12 11:39:48.778
122.0, -153464.3728690592, -187500.02235174447, -187500.02235174447, -161368.01676368914, 164193.36666981777, 187500.0, 187500.0, 187500.0, 0.14200000000000002, 0.246, 0.986, 192.0, 0.0, 0.0, 0.0, 0.0, 0.0, 0.0, 0.0, 0.0, 0.0, 1.6786355887784252E9, 0.0, 2023-03-12 11:39:48.778
123.0, -153548.99657356698, -187500.02235174447, -187500.02235174447, -161458.54132873315, 164063.27951708788, 187500.0, 187500.0, 187500.0, 0.14200000000000002, 0.246, 0.986, 192.0, 0.0, 0.0, 0.0, 0.0, 0.0, 0.0, 0.0, 0.0, 0.0, 1.6786355887785041E9, 0.0, 2023-03-12 11:39:48.778
124.0, -153448.83840666275, -187500.02235174447, -187500.02235174447, -161324.09558583447, 164342.49750882358, 187500.0, 187500.0, 187500.0, 0.14200000000000002, 0.246, 0.986, 192.0, 0.0, 0.0, 0.0, 0.0, 0.0, 0.0, 0.0, 0.0, 0.0, 1.6786355887785292E9, 0.0, 2023-03-12 11:39:48.778
125.0, -153343.78520772283, -187500.02235174447, -187500.02235174447, -161159.83261583242, 164661.68041964536, 187500.0, 187500.0, 187500.0, 0.14200000000000002, 0.246, 0.986, 192.0, 0.0, 0.0, 0.0, 0.0, 0.0, 0.0, 0.0, 0.0, 0.0, 1.6786355887785425E9, 0.0, 2023-03-12 11:39:48.778
126.0, -153427.4701389635, -187500.02235174447, -187500.02235174447, -161218.1483171163, 164573.41338079137, 187500.0, 187500.0, 187500.0, 0.14200000000000002, 0.246, 0.986, 192.0, 4.0, 112.0, 7.0, 176.0, 30.0, 208.0, 0.0, 0.0, 0.0, 1.678635588778556E9, 0.0, 2023-03-12 11:39:48.778
127.0, -153543.72156187554, -187500.02235174447, -187500.02235174447, -161337.1713563408, 164389.27970996854, 187500.0, 187500.0, 187500.0, 0.14200000000000002, 0.246, 0.986, 192.0, 0.0, 0.0, 0.0, 0.0, 0.0, 0.0, 0.0, 0.0, 0.0, 1.6786355887785704E9, 0.0, 2023-03-12 11:39:48.778
128.0, -153474.94524418656, -187500.02235174447, -187500.02235174447, -161240.81298599398, 164602.73886951673, 187500.0, 187500.0, 187500.0, 0.14200000000000002, 0.246, 0.986, 192.0, 0.0, 0.0, 0.0, 0.0, 0.0, 0.0, 0.0, 0.0, 0.0, 1.67863558877859E9, 0.0, 2023-03-12 11:39:48.778
129.0, -153341.41592281056, -187500.02235174447, -187500.02235174447, -161050.2643645125, 164966.6923244825, 187500.0, 187500.0, 187500.0, 0.14200000000000002, 0.246, 0.986, 192.0, 0.0, 0.0, 0.0, 0.0, 0.0, 0.0, 0.0, 0.0, 0.0, 1.678635588778608E9, 0.0, 2023-03-12 11:39:48.778
130.0, -153390.2097809565, -187500.02235174447, -187500.02235174447, -161065.97764086458, 164949.68264695202, 187500.0, 187500.0, 187500.0, 0.14200000000000002, 0.246, 0.986, 192.0, 0.0, 0.0, 0.0, 0.0, 0.0, 0.0, 0.0, 0.0, 0.0, 1.6786355887786212E9, 0.0, 2023-03-12 11:39:48.778
131.0, -153515.67012258412, -187500.02235174447, -187500.02235174447, -161198.85876165138, 164738.0339787047, 187500.0, 187500.0, 187500.0, 0.14200000000000002, 0.246, 0.986, 192.0, 0.0, 0.0, 0.0, 0.0, 0.0, 0.0, 0.0, 0.0, 0.0, 1.6786355887786343E9, 0.0, 2023-03-12 11:39:48.778
132.0, -153472.79947671885, -187500.02235174447, -187500.02235174447, -161141.81710980143, 164879.92285250698, 187500.0, 187500.0, 187500.0, 0.14200000000000002, 0.246, 0.986, 192.0, 0.0, 0.0, 0.0, 0.0, 0.0, 0.0, 0.0, 0.0, 0.0, 1.6786355887786474E9, 0.0, 2023-03-12 11:39:48.778
133.0, -153337.90669893107, -187500.02235174447, -187500.02235174447, -160947.245174318, 165259.03079021347, 187500.0, 187500.0, 187500.0, 0.14200000000000002, 0.246, 0.986, 192.0, 0.0, 0.0, 0.0, 0.0, 0.0, 0.0, 0.0, 0.0, 0.0, 1.6786355887786608E9, 0.0, 2023-03-12 11:39:48.778
134.0, -153355.47517007295, -187500.02235174447, -187500.02235174447, -160921.51831644992, 165317.94998859765, 187500.0, 187500.0, 187500.0, 0.14200000000000002, 0.246, 0.986, 192.0, 0.0, 0.0, 0.0, 0.0, 0.0, 0.0, 0.0, 0.0, 0.0, 1.678635588778674E9, 0.0, 2023-03-12 11:39:48.778
135.0, -153494.74888977397, -187500.02235174447, -187500.02235174447, -161059.94266986166, 165093.82904694427, 187500.0, 187500.0, 187500.0, 0.14200000000000002, 0.246, 0.986, 192.0, 0.0, 0.0, 0.0, 0.0, 0.0, 0.0, 0.0, 0.0, 0.0, 1.678635588778687E9, 0.0, 2023-03-12 11:39:48.778
136.0, -153497.1181746862, -187500.02235174447, -187500.02235174447, -161049.07972205637, 165153.41879766213, 187500.0, 187500.0, 187500.0, 0.14, 0.254, 0.984, 192.0, 4.0, 96.0, 7.0, 240.0, 30.0, 192.0, 0.0, 0.0, 0.0, 1.6786355887787776E9, 0.0, 2023-03-12 11:39:48.778
137.0, -153351.0942281597, -187500.02235174447, -187500.02235174447, -160851.6691150271, 165536.59475285947, 187500.0, 187500.0, 187500.0, 0.14, 0.254, 0.984, 192.0, 0.0, 0.0, 0.0, 0.0, 0.0, 0.0, 0.0, 0.0, 0.0, 1.6786355887787929E9, 0.0, 2023-03-12 11:39:48.778
138.0, -153323.40041677956, -187500.02235174447, -187500.02235174447, -160778.37774495815, 165678.9083098064, 187500.0, 187500.0, 187500.0, 0.14, 0.254, 0.984, 192.0, 0.0, 0.0, 0.0, 0.0, 0.0, 0.0, 0.0, 0.0, 0.0, 1.678635588778806E9, 0.0, 2023-03-12 11:39:48.778
139.0, -153456.4827032665, -187500.02235174447, -187500.02235174447, -160908.10726977675, 165466.4549787587, 187500.0, 187500.0, 187500.0, 0.14, 0.254, 0.984, 192.0, 0.0, 0.0, 0.0, 0.0, 0.0, 0.0, 0.0, 0.0, 0.0, 1.678635588778819E9, 0.0, 2023-03-12 11:39:48.778
140.0, -153487.3281106148, -187500.02235174447, -187500.02235174447, -160937.90214513568, 165451.00992334008, 187500.0, 187500.0, 187500.0, 0.14, 0.254, 0.984, 192.0, 0.0, 0.0, 0.0, 0.0, 0.0, 0.0, 0.0, 0.0, 0.0, 1.6786355887788322E9, 0.0, 2023-03-12 11:39:48.778
141.0, -153356.16807415106, -187500.02235174447, -187500.02235174447, -160757.52356738134, 165808.86135206954, 187500.0, 187500.0, 187500.0, 0.14, 0.254, 0.984, 192.0, 0.0, 0.0, 0.0, 0.0, 0.0, 0.0, 0.0, 0.0, 0.0, 1.6786355887788453E9, 0.0, 2023-03-12 11:39:48.778
142.0, -153300.19930603498, -187500.02235174447, -187500.02235174447, -160647.08359802768, 166021.80642149525, 187500.0, 187500.0, 187500.0, 0.14, 0.254, 0.984, 192.0, 0.0, 0.0, 0.0, 0.0, 0.0, 0.0, 0.0, 0.0, 0.0, 1.6786355887788584E9, 0.0, 2023-03-12 11:39:48.778
143.0, -153426.68782790756, -187500.02235174447, -187500.02235174447, -160760.49634939388, 165837.62804718353, 187500.0, 187500.0, 187500.0, 0.14, 0.254, 0.984, 192.0, 0.0, 0.0, 0.0, 0.0, 0.0, 0.0, 0.0, 0.0, 0.0, 1.6786355887788713E9, 0.0, 2023-03-12 11:39:48.778
144.0, -153498.0792996978, -187500.02235174447, -187500.02235174447, -160831.0608066393, 165749.29395309614, 187500.0, 187500.0, 187500.0, 0.14, 0.254, 0.984, 192.0, 0.0, 0.0, 0.0, 0.0, 0.0, 0.0, 0.0, 0.0, 0.0, 1.6786355887788844E9, 0.0, 2023-03-12 11:39:48.778
145.0, -153379.59270234022, -187500.02235174447, -187500.02235174447, -160672.8775111291, 166070.42146568556, 187500.0, 187500.0, 187500.0, 0.14, 0.254, 0.984, 192.0, 0.0, 0.0, 0.0, 0.0, 0.0, 0.0, 0.0, 0.0, 0.0, 1.6786355887788975E9, 0.0, 2023-03-12 11:39:48.778
146.0, -153285.7824308613, -187500.02235174447, -187500.02235174447, -160523.32198897863, 166353.55101270092, 187500.0, 187500.0, 187500.0, 0.14400000000000002, 0.258, 0.978, 192.0, 4.0, 128.0, 8.0, 16.0, 30.0, 144.0, 0.0, 0.0, 0.0, 1.6786355887789106E9, 0.0, 2023-03-12 11:39:48.778
147.0, -153388.93573152254, -187500.02235174447, -187500.02235174447, -160607.09632719713, 166218.41236572413, 187500.0, 187500.0, 187500.0, 0.14400000000000002, 0.258, 0.978, 192.0, 0.0, 0.0, 0.0, 0.0, 0.0, 0.0, 0.0, 0.0, 0.0, 1.6786355887789245E9, 0.0, 2023-03-12 11:39:48.778
148.0, -153475.88401745367, -187500.02235174447, -187500.02235174447, -160703.18647661048, 166075.38355295462, 187500.0, 187500.0, 187500.0, 0.14400000000000002, 0.258, 0.978, 192.0, 0.0, 0.0, 0.0, 0.0, 0.0, 0.0, 0.0, 0.0, 0.0, 1.6786355887789376E9, 0.0, 2023-03-12 11:39:48.778
149.0, -153359.83376024172, -187500.02235174447, -187500.02235174447, -160568.18194010045, 166349.4159399767, 187500.0, 187500.0, 187500.0, 0.14400000000000002, 0.258, 0.978, 192.0, 0.0, 0.0, 0.0, 0.0, 0.0, 0.0, 0.0, 0.0, 0.0, 1.6786355887789507E9, 0.0, 2023-03-12 11:39:48.778
150.0, -153233.34523836913, -187500.02235174447, -187500.02235174447, -160389.94912981382, 166684.66975506186, 187500.0, 187500.0, 187500.0, 0.14400000000000002, 0.258, 0.978, 192.0, 0.0, 0.0, 0.0, 0.0, 0.0, 0.0, 0.0, 0.0, 0.0, 1.6786355887789705E9, 0.0, 2023-03-12 11:39:48.778
151.0, -153327.40137903707, -187500.02235174447, -187500.02235174447, -160447.25900259722, 166601.36480347693, 187500.0, 187500.0, 187500.0, 0.14400000000000002, 0.258, 0.978, 192.0, 0.0, 0.0, 0.0, 0.0, 0.0, 0.0, 0.0, 0.0, 0.0, 1.6786355887790244E9, 0.0, 2023-03-12 11:39:48.779
152.0, -153473.24651160795, -187500.02235174447, -187500.02235174447, -160581.81650421818, 166395.34877483235, 187500.0, 187500.0, 187500.0, 0.14400000000000002, 0.258, 0.978, 192.0, 0.0, 0.0, 0.0, 0.0, 0.0, 0.0, 0.0, 0.0, 0.0, 1.6786355887790377E9, 0.0, 2023-03-12 11:39:48.779
153.0, -153414.14849926814, -187500.02235174447, -187500.02235174447, -160495.85169504306, 166588.51255041512, 187500.0, 187500.0, 187500.0, 0.14400000000000002, 0.258, 0.978, 192.0, 0.0, 0.0, 0.0, 0.0, 0.0, 0.0, 0.0, 0.0, 0.0, 1.6786355887790504E9, 0.0, 2023-03-12 11:39:48.779
154.0, -153271.85729406564, -187500.02235174447, -187500.02235174447, -160299.5363234921, 166960.69144734045, 187500.0, 187500.0, 187500.0, 0.14400000000000002, 0.258, 0.978, 192.0, 0.0, 0.0, 0.0, 0.0, 0.0, 0.0, 0.0, 0.0, 0.0, 1.6786355887790635E9, 0.0, 2023-03-12 11:39:48.779
155.0, -153313.7891666638, -187500.02235174447, -187500.02235174447, -160304.7442799502, 166963.1501392305, 187500.0, 187500.0, 187500.0, 0.146, 0.25, 0.98, 192.0, 4.0, 144.0, 7.0, 208.0, 30.0, 160.0, 0.0, 0.0, 0.0, 1.6786355887790766E9, 0.0, 2023-03-12 11:39:48.779
156.0, -153445.50799673892, -187500.02235174447, -187500.02235174447, -160439.5700025046, 166746.02529359167, 187500.0, 187500.0, 187500.0, 0.146, 0.25, 0.98, 192.0, 0.0, 0.0, 0.0, 0.0, 0.0, 0.0, 0.0, 0.0, 0.0, 1.6786355887791083E9, 0.0, 2023-03-12 11:39:48.779
157.0, -153414.97551381297, -187500.02235174447, -187500.02235174447, -160395.6711763944, 166864.60129792706, 187500.0, 187500.0, 187500.0, 0.146, 0.25, 0.98, 192.0, 0.0, 0.0, 0.0, 0.0, 0.0, 0.0, 0.0, 0.0, 0.0, 1.6786355887791212E9, 0.0, 2023-03-12 11:39:48.779
158.0, -153277.24406447937, -187500.02235174447, -187500.02235174447, -160198.99817693213, 167243.10573853325, 187500.0, 187500.0, 187500.0, 0.146, 0.25, 0.98, 192.0, 0.0, 0.0, 0.0, 0.0, 0.0, 0.0, 0.0, 0.0, 0.0, 1.678635588779134E9, 0.0, 2023-03-12 11:39:48.779
159.0, -153285.15658201656, -187500.02235174447, -187500.02235174447, -160161.2460805471, 167321.76152727148, 187500.0, 187500.0, 187500.0, 0.146, 0.25, 0.98, 192.0, 0.0, 0.0, 0.0, 0.0, 0.0, 0.0, 0.0, 0.0, 0.0, 1.6786355887791471E9, 0.0, 2023-03-12 11:39:48.779
160.0, -153424.63146741767, -187500.02235174447, -187500.02235174447, -160298.61990196945, 167098.46760016296, 187500.0, 187500.0, 187500.0, 0.146, 0.25, 0.98, 192.0, 0.0, 0.0, 0.0, 0.0, 0.0, 0.0, 0.0, 0.0, 0.0, 1.6786355887791605E9, 0.0, 2023-03-12 11:39:48.779
161.0, -153435.0697320783, -187500.02235174447, -187500.02235174447, -160297.30114904657, 167138.54427797132, 187500.0, 187500.0, 187500.0, 0.146, 0.25, 0.98, 192.0, 0.0, 0.0, 0.0, 0.0, 0.0, 0.0, 0.0, 0.0, 0.0, 1.6786355887791734E9, 0.0, 2023-03-12 11:39:48.779
162.0, -153294.16433503202, -187500.02235174447, -187500.02235174447, -160102.8409722854, 167517.31693951096, 187500.0, 187500.0, 187500.0, 0.146, 0.25, 0.98, 192.0, 0.0, 0.0, 0.0, 0.0, 0.0, 0.0, 0.0, 0.0, 0.0, 1.6786355887791865E9, 0.0, 2023-03-12 11:39:48.779
163.0, -153261.08375323817, -187500.02235174447, -187500.02235174447, -160018.68665441117, 167676.59547049945, 187500.0, 187500.0, 187500.0, 0.146, 0.25, 0.98, 192.0, 0.0, 0.0, 0.0, 0.0, 0.0, 0.0, 0.0, 0.0, 0.0, 1.6786355887791996E9, 0.0, 2023-03-12 11:39:48.779
164.0, -153394.56837112526, -187500.02235174447, -187500.02235174447, -160144.50462395008, 167467.69606682015, 187500.0, 187500.0, 187500.0, 0.146, 0.25, 0.98, 192.0, 0.0, 0.0, 0.0, 0.0, 0.0, 0.0, 0.0, 0.0, 0.0, 1.6786355887792127E9, 0.0, 2023-03-12 11:39:48.779
165.0, -153436.38848500117, -187500.02235174447, -187500.02235174447, -160187.44232504873, 167429.67574950168, 187500.0, 187500.0, 187500.0, 0.15, 0.25, 0.98, 192.0, 4.0, 176.0, 7.0, 208.0, 30.0, 160.0, 0.0, 0.0, 0.0, 1.6786355887792256E9, 0.0, 2023-03-12 11:39:48.779
166.0, -153305.7872421488, -187500.02235174447, -187500.02235174447, -160010.99765431855, 167779.77112290516, 187500.0, 187500.0, 187500.0, 0.15, 0.25, 0.98, 192.0, 0.0, 0.0, 0.0, 0.0, 0.0, 0.0, 0.0, 0.0, 0.0, 1.6786355887792892E9, 0.0, 2023-03-12 11:39:48.779
167.0, -153238.0167529603, -187500.02235174447, -187500.02235174447, -159888.4430394701, 168011.7598786068, 187500.0, 187500.0, 187500.0, 0.15, 0.25, 0.98, 192.0, 0.0, 0.0, 0.0, 0.0, 0.0, 0.0, 0.0, 0.0, 0.0, 1.6786355887793024E9, 0.0, 2023-03-12 11:39:48.779
168.0, -153356.5927572957, -187500.02235174447, -187500.02235174447, -159994.05503202142, 167838.10917593352, 187500.0, 187500.0, 187500.0, 0.15, 0.25, 0.98, 192.0, 0.0, 0.0, 0.0, 0.0, 0.0, 0.0, 0.0, 0.0, 0.0, 1.6786355887793157E9, 0.0, 2023-03-12 11:39:48.779
169.0, -153427.82776687478, -187500.02235174447, -187500.02235174447, -160068.48634105758, 167734.6876543388, 187500.0, 187500.0, 187500.0, 0.15, 0.25, 0.98, 192.0, 0.0, 0.0, 0.0, 0.0, 0.0, 0.0, 0.0, 0.0, 0.0, 1.6786355887793283E9, 0.0, 2023-03-12 11:39:48.779
170.0, -153315.5996579647, -187500.02235174447, -187500.02235174447, -159917.88028691773, 168041.51005047682, 187500.0, 187500.0, 187500.0, 0.15, 0.25, 0.98, 192.0, 0.0, 0.0, 0.0, 0.0, 0.0, 0.0, 0.0, 0.0, 0.0, 1.6786355887793417E9, 0.0, 2023-03-12 11:39:48.779
171.0, -153217.38609282806, -187500.02235174447, -187500.02235174447, -159762.98269784247, 168336.21780112004, 187500.0, 187500.0, 187500.0, 0.15, 0.25, 0.98, 192.0, 0.0, 0.0, 0.0, 0.0, 0.0, 0.0, 0.0, 0.0, 0.0, 1.6786355887793565E9, 0.0, 2023-03-12 11:39:48.779
172.0, -153315.10791958665, -187500.02235174447, -187500.02235174447, -159838.71040805703, 168216.9041892176, 187500.0, 187500.0, 187500.0, 0.15, 0.25, 0.98, 192.0, 0.0, 0.0, 0.0, 0.0, 0.0, 0.0, 0.0, 0.0, 0.0, 1.6786355887793696E9, 0.0, 2023-03-12 11:39:48.779
173.0, -153422.2174790165, -187500.02235174447, -187500.02235174447, -159947.76456925448, 168053.15530933804, 187500.0, 187500.0, 187500.0, 0.15, 0.25, 0.98, 192.0, 0.0, 0.0, 0.0, 0.0, 0.0, 0.0, 0.0, 0.0, 0.0, 1.6786355887793827E9, 0.0, 2023-03-12 11:39:48.779
174.0, -153339.42661755404, -187500.02235174447, -187500.02235174447, -159832.4295678651, 168297.25871053443, 187500.0, 187500.0, 187500.0, 0.15, 0.25, 0.98, 192.0, 0.0, 0.0, 0.0, 0.0, 0.0, 0.0, 0.0, 0.0, 0.0, 1.678635588779396E9, 0.0, 2023-03-12 11:39:48.779
175.0, -153216.3579125831, -187500.02235174447, -187500.02235174447, -159649.54759473176, 168642.39199666883, 187500.0, 187500.0, 187500.0, 0.146, 0.248, 0.984, 192.0, 4.0, 144.0, 7.0, 192.0, 30.0, 192.0, 0.0, 0.0, 0.0, 1.678635588779409E9, 0.0, 2023-03-12 11:39:48.779
176.0, -153284.55308491626, -187500.02235174447, -187500.02235174447, -159684.9974614379, 168586.80320820847, 187500.0, 187500.0, 187500.0, 0.146, 0.248, 0.984, 192.0, 0.0, 0.0, 0.0, 0.0, 0.0, 0.0, 0.0, 0.0, 0.0, 1.6786355887794228E9, 0.0, 2023-03-12 11:39:48.779
177.0, -153402.19031598454, -187500.02235174447, -187500.02235174447, -159807.50737279744, 168389.19143547912, 187500.0, 187500.0, 187500.0, 0.146, 0.248, 0.984, 192.0, 0.0, 0.0, 0.0, 0.0, 0.0, 0.0, 0.0, 0.0, 0.0, 1.6786355887794359E9, 0.0, 2023-03-12 11:39:48.779
178.0, -153340.27598384334, -187500.02235174447, -187500.02235174447, -159726.23642995793, 168570.95582138965, 187500.0, 187500.0, 187500.0, 0.146, 0.248, 0.984, 192.0, 0.0, 0.0, 0.0, 0.0, 0.0, 0.0, 0.0, 0.0, 0.0, 1.6786355887794487E9, 0.0, 2023-03-12 11:39:48.779
179.0, -153210.0100171578, -187500.02235174447, -187500.02235174447, -159534.39140729804, 168942.33005551458, 187500.0, 187500.0, 187500.0, 0.146, 0.248, 0.984, 192.0, 0.0, 0.0, 0.0, 0.0, 0.0, 0.0, 0.0, 0.0, 0.0, 1.6786355887794619E9, 0.0, 2023-03-12 11:39:48.779
180.0, -153247.180968187, -187500.02235174447, -187500.02235174447, -159531.3515700521, 168960.90435515696, 187500.0, 187500.0, 187500.0, 0.146, 0.248, 0.984, 192.0, 0.0, 0.0, 0.0, 0.0, 0.0, 0.0, 0.0, 0.0, 0.0, 1.6786355887794747E9, 0.0, 2023-03-12 11:39:48.779
181.0, -153385.13593496513, -187500.02235174447, -187500.02235174447, -159669.61946125265, 168736.4257855923, 187500.0, 187500.0, 187500.0, 0.146, 0.248, 0.984, 192.0, 0.0, 0.0, 0.0, 0.0, 0.0, 0.0, 0.0, 0.0, 0.0, 1.6786355887795208E9, 0.0, 2023-03-12 11:39:48.779
182.0, -153368.1039056902, -187500.02235174447, -187500.02235174447, -159636.1812515475, 168835.22049608477, 187500.0, 187500.0, 187500.0, 0.146, 0.248, 0.984, 192.0, 0.0, 0.0, 0.0, 0.0, 0.0, 0.0, 0.0, 0.0, 0.0, 1.6786355887795348E9, 0.0, 2023-03-12 11:39:48.779
183.0, -153224.3598370981, -187500.02235174447, -187500.02235174447, -159435.82021425012, 169219.80461118277, 187500.0, 187500.0, 187500.0, 0.146, 0.248, 0.984, 192.0, 0.0, 0.0, 0.0, 0.0, 0.0, 0.0, 0.0, 0.0, 0.0, 1.678635588779548E9, 0.0, 2023-03-12 11:39:48.779
184.0, -153218.72719749538, -187500.02235174447, -187500.02235174447, -159385.32762352558, 169320.5215716984, 187500.0, 187500.0, 187500.0, 0.146, 0.248, 0.984, 192.0, 0.0, 0.0, 0.0, 0.0, 0.0, 0.0, 0.0, 0.0, 0.0, 1.6786355887795608E9, 0.0, 2023-03-12 11:39:48.779
185.0, -153354.55874855028, -187500.02235174447, -187500.02235174447, -159517.73935767883, 169102.4579527924, 187500.0, 187500.0, 187500.0, 0.14400000000000002, 0.244, 0.982, 192.0, 4.0, 128.0, 7.0, 160.0, 30.0, 176.0, 0.0, 0.0, 0.0, 1.678635588779574E9, 0.0, 2023-03-12 11:39:48.779
186.0, -153371.03198421383, -187500.02235174447, -187500.02235174447, -159525.02602637126, 169124.5191245698, 187500.0, 187500.0, 187500.0, 0.14400000000000002, 0.244, 0.982, 192.0, 0.0, 0.0, 0.0, 0.0, 0.0, 0.0, 0.0, 0.0, 0.0, 1.6786355887795877E9, 0.0, 2023-03-12 11:39:48.779
187.0, -153233.7699215138, -187500.02235174447, -187500.02235174447, -159334.5444601231, 169497.5026842955, 187500.0, 187500.0, 187500.0, 0.14400000000000002, 0.244, 0.982, 192.0, 0.0, 0.0, 0.0, 0.0, 0.0, 0.0, 0.0, 0.0, 0.0, 1.6786355887796006E9, 0.0, 2023-03-12 11:39:48.779
188.0, -153192.0615663602, -187500.02235174447, -187500.02235174447, -159241.18122353332, 169676.02606726004, 187500.0, 187500.0, 187500.0, 0.14400000000000002, 0.244, 0.982, 192.0, 0.0, 0.0, 0.0, 0.0, 0.0, 0.0, 0.0, 0.0, 0.0, 1.6786355887796135E9, 0.0, 2023-03-12 11:39:48.779
189.0, -153321.8357946677, -187500.02235174447, -187500.02235174447, -159361.67947789188, 169473.96629738406, 187500.0, 187500.0, 187500.0, 0.14400000000000002, 0.244, 0.982, 192.0, 0.0, 0.0, 0.0, 0.0, 0.0, 0.0, 0.0, 0.0, 0.0, 1.6786355887796268E9, 0.0, 2023-03-12 11:39:48.779
190.0, -153368.7521062794, -187500.02235174447, -187500.02235174447, -159408.4169755479, 169421.66321535865, 187500.0, 187500.0, 187500.0, 0.14400000000000002, 0.244, 0.982, 192.0, 0.0, 0.0, 0.0, 0.0, 0.0, 0.0, 0.0, 0.0, 0.0, 1.6786355887796395E9, 0.0, 2023-03-12 11:39:48.779
191.0, -153243.29176465175, -187500.02235174447, -187500.02235174447, -159236.71087464225, 169763.10846365793, 187500.0, 187500.0, 187500.0, 0.14400000000000002, 0.244, 0.982, 192.0, 0.0, 0.0, 0.0, 0.0, 0.0, 0.0, 0.0, 0.0, 0.0, 1.6786355887796528E9, 0.0, 2023-03-12 11:39:48.779
192.0, -153170.5144847053, -187500.02235174447, -187500.02235174447, -159104.14267827783, 170012.55393177914, 187500.0, 187500.0, 187500.0, 0.14400000000000002, 0.244, 0.982, 192.0, 0.0, 0.0, 0.0, 0.0, 0.0, 0.0, 0.0, 0.0, 0.0, 1.6786355887796671E9, 0.0, 2023-03-12 11:39:48.779
193.0, -153282.6308348931, -187500.02235174447, -187500.02235174447, -159199.6293305909, 169853.52126997965, 187500.0, 187500.0, 187500.0, 0.14400000000000002, 0.244, 0.982, 192.0, 0.0, 0.0, 0.0, 0.0, 0.0, 0.0, 0.0, 0.0, 0.0, 1.6786355887796805E9, 0.0, 2023-03-12 11:39:48.779
194.0, -153364.48292308842, -187500.02235174447, -187500.02235174447, -159282.5543025201, 169735.816983678, 187500.0, 187500.0, 187500.0, 0.14400000000000002, 0.244, 0.982, 192.0, 0.0, 0.0, 0.0, 0.0, 0.0, 0.0, 0.0, 0.0, 0.0, 1.6786355887796936E9, 0.0, 2023-03-12 11:39:48.779
195.0, -153259.94381427096, -187500.02235174447, -187500.02235174447, -159139.39137928383, 170028.22250464233, 187500.0, 187500.0, 187500.0, 0.14200000000000002, 0.244, 0.984, 192.0, 4.0, 112.0, 7.0, 160.0, 30.0, 192.0, 0.0, 0.0, 0.0, 1.6786355887797065E9, 0.0, 2023-03-12 11:39:48.779
196.0, -153156.7905136097, -187500.02235174447, -187500.02235174447, -158978.10119129435, 170337.59299964822, 187500.0, 187500.0, 187500.0, 0.14200000000000002, 0.244, 0.984, 192.0, 0.0, 0.0, 0.0, 0.0, 0.0, 0.0, 0.0, 0.0, 0.0, 1.6786355887797527E9, 0.0, 2023-03-12 11:39:48.779
197.0, -153248.2762036653, -187500.02235174447, -187500.02235174447, -159046.94456421668, 170232.94213210847, 187500.0, 187500.0, 187500.0, 0.14200000000000002, 0.244, 0.984, 192.0, 0.0, 0.0, 0.0, 0.0, 0.0, 0.0, 0.0, 0.0, 0.0, 1.678635588779766E9, 0.0, 2023-03-12 11:39:48.779
198.0, -153357.01744044037, -187500.02235174447, -187500.02235174447, -159160.89375744984, 170062.0853974921, 187500.0, 187500.0, 187500.0, 0.14200000000000002, 0.244, 0.984, 192.0, 0.0, 0.0, 0.0, 0.0, 0.0, 0.0, 0.0, 0.0, 0.0, 1.6786355887797792E9, 0.0, 2023-03-12 11:39:48.779
199.0, -153281.24502673687, -187500.02235174447, -187500.02235174447, -159053.65008755328, 170293.96239447145, 187500.0, 187500.0, 187500.0, 0.14200000000000002, 0.244, 0.984, 192.0, 0.0, 0.0, 0.0, 0.0, 0.0, 0.0, 0.0, 0.0, 0.0, 1.6786355887797923E9, 0.0, 2023-03-12 11:39:48.779
200.0, -153153.9518420639, -187500.02235174447, -187500.02235174447, -158865.56015796188, 170648.37165455482, 187500.0, 187500.0, 187500.0, 0.14200000000000002, 0.244, 0.984, 192.0, 0.0, 0.0, 0.0, 0.0, 0.0, 0.0, 0.0, 0.0, 0.0, 1.6786355887798054E9, 0.0, 2023-03-12 11:39:48.779
201.0, -153209.8088514577, -187500.02235174447, -187500.02235174447, -158888.67186172865, 170615.80516288342, 187500.0, 187500.0, 187500.0, 0.14200000000000002, 0.244, 0.984, 192.0, 0.0, 0.0, 0.0, 0.0, 0.0, 0.0, 0.0, 0.0, 0.0, 1.6786355887798183E9, 0.0, 2023-03-12 11:39:48.779
202.0, -153337.10203613067, -187500.02235174447, -187500.02235174447, -159018.3790348028, 170409.4762098165, 187500.0, 187500.0, 187500.0, 0.14200000000000002, 0.244, 0.984, 192.0, 0.0, 0.0, 0.0, 0.0, 0.0, 0.0, 0.0, 0.0, 0.0, 1.6786355887798312E9, 0.0, 2023-03-12 11:39:48.779
203.0, -153292.80087862027, -187500.02235174447, -187500.02235174447, -158952.84372005984, 170567.48069137105, 187500.0, 187500.0, 187500.0, 0.14200000000000002, 0.244, 0.984, 192.0, 0.0, 0.0, 0.0, 0.0, 0.0, 0.0, 0.0, 0.0, 0.0, 1.6786355887798443E9, 0.0, 2023-03-12 11:39:48.779
204.0, -153152.3425164631, -187500.02235174447, -187500.02235174447, -158753.6226217297, 170947.77327153366, 187500.0, 187500.0, 187500.0, 0.14200000000000002, 0.244, 0.984, 192.0, 0.0, 0.0, 0.0, 0.0, 0.0, 0.0, 0.0, 0.0, 0.0, 1.6786355887798572E9, 0.0, 2023-03-12 11:39:48.779
205.0, -153175.07424057415, -187500.02235174447, -187500.02235174447, -158735.65181918762, 170988.63226039795, 187500.0, 187500.0, 187500.0, 0.14, 0.248, 0.982, 192.0, 4.0, 96.0, 7.0, 192.0, 30.0, 176.0, 0.0, 0.0, 0.0, 1.6786355887798705E9, 0.0, 2023-03-12 11:39:48.779
206.0, -153311.91162012954, -187500.02235174447, -187500.02235174447, -158872.93623363212, 170764.82424316698, 187500.0, 187500.0, 187500.0, 0.14, 0.248, 0.982, 192.0, 0.0, 0.0, 0.0, 0.0, 0.0, 0.0, 0.0, 0.0, 0.0, 1.6786355887798843E9, 0.0, 2023-03-12 11:39:48.779
207.0, -153303.30619851427, -187500.02235174447, -187500.02235174447, -158850.1374542877, 170843.77060458311, 187500.0, 187500.0, 187500.0, 0.14, 0.248, 0.982, 192.0, 0.0, 0.0, 0.0, 0.0, 0.0, 0.0, 0.0, 0.0, 0.0, 1.6786355887798975E9, 0.0, 2023-03-12 11:39:48.779
208.0, -153157.97515606586, -187500.02235174447, -187500.02235174447, -158650.58107979072, 171228.77940282578, 187500.0, 187500.0, 187500.0, 0.14, 0.248, 0.982, 192.0, 0.0, 0.0, 0.0, 0.0, 0.0, 0.0, 0.0, 0.0, 0.0, 1.6786355887799103E9, 0.0, 2023-03-12 11:39:48.779
209.0, -153140.5407953907, -187500.02235174447, -187500.02235174447, -158587.95149182697, 171352.943343275, 187500.0, 187500.0, 187500.0, 0.14, 0.248, 0.982, 192.0, 0.0, 0.0, 0.0, 0.0, 0.0, 0.0, 0.0, 0.0, 0.0, 1.6786355887799237E9, 0.0, 2023-03-12 11:39:48.779
210.0, -153276.1264772566, -187500.02235174447, -187500.02235174447, -158719.78208062437, 171135.52792495824, 187500.0, 187500.0, 187500.0, 0.14, 0.248, 0.982, 192.0, 0.0, 0.0, 0.0, 0.0, 0.0, 0.0, 0.0, 0.0, 0.0, 1.6786355887799366E9, 0.0, 2023-03-12 11:39:48.779
211.0, -153301.04867232428, -187500.02235174447, -187500.02235174447, -158737.55171746633, 171137.76309940376, 187500.0, 187500.0, 187500.0, 0.14, 0.248, 0.982, 192.0, 0.0, 0.0, 0.0, 0.0, 0.0, 0.0, 0.0, 0.0, 0.0, 1.6786355887799942E9, 0.0, 2023-03-12 11:39:48.779
212.0, -153163.67485090197, -187500.02235174447, -187500.02235174447, -158549.05945647473, 171505.04696429337, 187500.0, 187500.0, 187500.0, 0.14, 0.248, 0.982, 192.0, 0.0, 0.0, 0.0, 0.0, 0.0, 0.0, 0.0, 0.0, 0.0, 1.6786355887800083E9, 0.0, 2023-03-12 11:39:48.780
213.0, -153112.6458183105, -187500.02235174447, -187500.02235174447, -158444.11801625707, 171703.3739928453, 187500.0, 187500.0, 187500.0, 0.14, 0.248, 0.982, 192.0, 0.0, 0.0, 0.0, 0.0, 0.0, 0.0, 0.0, 0.0, 0.0, 1.6786355887800212E9, 0.0, 2023-03-12 11:39:48.780
214.0, -153240.4307413615, -187500.02235174447, -187500.02235174447, -158558.60365135715, 171513.16064753063, 187500.0, 187500.0, 187500.0, 0.14, 0.248, 0.982, 192.0, 0.0, 0.0, 0.0, 0.0, 0.0, 0.0, 0.0, 0.0, 0.0, 1.678635588780036E9, 0.0, 2023-03-12 11:39:48.780
215.0, -153300.86985836862, -187500.02235174447, -187500.02235174447, -158616.56172472975, 171441.03156817338, 187500.0, 187500.0, 187500.0, 0.14, 0.252, 0.984, 192.0, 4.0, 96.0, 7.0, 224.0, 30.0, 192.0, 0.0, 0.0, 0.0, 1.678635588780049E9, 0.0, 2023-03-12 11:39:48.780
216.0, -153179.7681069098, -187500.02235174447, -187500.02235174447, -158450.77883610473, 171772.284421001, 187500.0, 187500.0, 187500.0, 0.14, 0.252, 0.984, 192.0, 0.0, 0.0, 0.0, 0.0, 0.0, 0.0, 0.0, 0.0, 0.0, 1.6786355887800632E9, 0.0, 2023-03-12 11:39:48.780
217.0, -153094.0268151792, -187500.02235174447, -187500.02235174447, -158306.4536221568, 172042.6511219324, 187500.0, 187500.0, 187500.0, 0.14, 0.252, 0.984, 192.0, 0.0, 0.0, 0.0, 0.0, 0.0, 0.0, 0.0, 0.0, 0.0, 1.6786355887800765E9, 0.0, 2023-03-12 11:39:48.780
218.0, -153202.79040369875, -187500.02235174447, -187500.02235174447, -158395.05593717765, 171895.04020154956, 187500.0, 187500.0, 187500.0, 0.14, 0.252, 0.984, 192.0, 0.0, 0.0, 0.0, 0.0, 0.0, 0.0, 0.0, 0.0, 0.0, 1.6786355887800891E9, 0.0, 2023-03-12 11:39:48.780
219.0, -153291.4821256974, -187500.02235174447, -187500.02235174447, -158485.7593161773, 171760.6391621398, 187500.0, 187500.0, 187500.0, 0.14, 0.252, 0.984, 192.0, 0.0, 0.0, 0.0, 0.0, 0.0, 0.0, 0.0, 0.0, 0.0, 1.67863558878012E9, 0.0, 2023-03-12 11:39:48.780
220.0, -153192.7097669494, -187500.02235174447, -187500.02235174447, -158350.75477966724, 172039.0077875862, 187500.0, 187500.0, 187500.0, 0.14, 0.252, 0.984, 192.0, 0.0, 0.0, 0.0, 0.0, 0.0, 0.0, 0.0, 0.0, 0.0, 1.6786355887801328E9, 0.0, 2023-03-12 11:39:48.780
221.0, -153082.2250941068, -187500.02235174447, -187500.02235174447, -158181.7308880962, 172361.07407344272, 187500.0, 187500.0, 187500.0, 0.14, 0.252, 0.984, 192.0, 0.0, 0.0, 0.0, 0.0, 0.0, 0.0, 0.0, 0.0, 0.0, 1.678635588780146E9, 0.0, 2023-03-12 11:39:48.780
222.0, -153164.658327658, -187500.02235174447, -187500.02235174447, -158237.1855660898, 172275.15396775652, 187500.0, 187500.0, 187500.0, 0.14, 0.252, 0.984, 192.0, 0.0, 0.0, 0.0, 0.0, 0.0, 0.0, 0.0, 0.0, 0.0, 1.6786355887801592E9, 0.0, 2023-03-12 11:39:48.780
223.0, -153278.96514880244, -187500.02235174447, -187500.02235174447, -158353.88402389098, 172093.79191324615, 187500.0, 187500.0, 187500.0, 0.14, 0.252, 0.984, 192.0, 0.0, 0.0, 0.0, 0.0, 0.0, 0.0, 0.0, 0.0, 0.0, 1.6786355887801747E9, 0.0, 2023-03-12 11:39:48.780
224.0, -153209.27240959078, -187500.02235174447, -187500.02235174447, -158254.97755467624, 172307.76516291682, 187500.0, 187500.0, 187500.0, 0.14400000000000002, 0.248, 0.984, 192.0, 4.0, 128.0, 7.0, 192.0, 30.0, 192.0, 0.0, 0.0, 0.0, 1.678635588780188E9, 0.0, 2023-03-12 11:39:48.780
225.0, -153074.29022482518, -187500.02235174447, -187500.02235174447, -158060.9197093153, 172672.8585568498, 187500.0, 187500.0, 187500.0, 0.14400000000000002, 0.248, 0.984, 192.0, 0.0, 0.0, 0.0, 0.0, 0.0, 0.0, 0.0, 0.0, 0.0, 1.6786355887802017E9, 0.0, 2023-03-12 11:39:48.780
226.0, -153121.65357132597, -187500.02235174447, -187500.02235174447, -158073.59314842144, 172658.12875725375, 187500.0, 187500.0, 187500.0, 0.14400000000000002, 0.248, 0.984, 192.0, 0.0, 0.0, 0.0, 0.0, 0.0, 0.0, 0.0, 0.0, 0.0, 1.6786355887802317E9, 0.0, 2023-03-12 11:39:48.780
227.0, -153252.2324624339, -187500.02235174447, -187500.02235174447, -158204.46261220725, 172445.47426050596, 187500.0, 187500.0, 187500.0, 0.14400000000000002, 0.248, 0.984, 192.0, 0.0, 0.0, 0.0, 0.0, 0.0, 0.0, 0.0, 0.0, 0.0, 1.6786355887802448E9, 0.0, 2023-03-12 11:39:48.780
228.0, -153216.02263641628, -187500.02235174447, -187500.02235174447, -158148.56089932454, 172582.5351575059, 187500.0, 187500.0, 187500.0, 0.14400000000000002, 0.248, 0.984, 192.0, 0.0, 0.0, 0.0, 0.0, 0.0, 0.0, 0.0, 0.0, 0.0, 1.678635588780258E9, 0.0, 2023-03-12 11:39:48.780
229.0, -153075.54192251468, -187500.02235174447, -187500.02235174447, -157949.16098703875, 172963.40888302433, 187500.0, 187500.0, 187500.0, 0.14400000000000002, 0.248, 0.984, 192.0, 0.0, 0.0, 0.0, 0.0, 0.0, 0.0, 0.0, 0.0, 0.0, 1.678635588780271E9, 0.0, 2023-03-12 11:39:48.780
230.0, -153089.8246872216, -187500.02235174447, -187500.02235174447, -157918.51674539052, 173026.2843401771, 187500.0, 187500.0, 187500.0, 0.14400000000000002, 0.248, 0.984, 192.0, 0.0, 0.0, 0.0, 0.0, 0.0, 0.0, 0.0, 0.0, 0.0, 1.678635588780284E9, 0.0, 2023-03-12 11:39:48.780
231.0, -153226.2597353768, -187500.02235174447, -187500.02235174447, -158054.5047586566, 172803.9291863357, 187500.0, 187500.0, 187500.0, 0.14400000000000002, 0.248, 0.984, 192.0, 0.0, 0.0, 0.0, 0.0, 0.0, 0.0, 0.0, 0.0, 0.0, 1.6786355887802973E9, 0.0, 2023-03-12 11:39:48.780
232.0, -153223.5551742977, -187500.02235174447, -187500.02235174447, -158039.9537730162, 172864.88239346535, 187500.0, 187500.0, 187500.0, 0.14400000000000002, 0.248, 0.984, 192.0, 0.0, 0.0, 0.0, 0.0, 0.0, 0.0, 0.0, 0.0, 0.0, 1.67863558878031E9, 0.0, 2023-03-12 11:39:48.780
233.0, -153079.63229175, -187500.02235174447, -187500.02235174447, -157840.6656194527, 173246.896057951, 187500.0, 187500.0, 187500.0, 0.14400000000000002, 0.248, 0.984, 192.0, 0.0, 0.0, 0.0, 0.0, 0.0, 0.0, 0.0, 0.0, 0.0, 1.678635588780323E9, 0.0, 2023-03-12 11:39:48.780
234.0, -153053.74897167075, -187500.02235174447, -187500.02235174447, -157765.9884412275, 173390.23779514286, 187500.0, 187500.0, 187500.0, 0.146, 0.248, 0.98, 192.0, 4.0, 144.0, 7.0, 192.0, 30.0, 160.0, 0.0, 0.0, 0.0, 1.678635588780338E9, 0.0, 2023-03-12 11:39:48.780
235.0, -153190.49694424833, -187500.02235174447, -187500.02235174447, -157894.53332358997, 173178.11974026202, 187500.0, 187500.0, 187500.0, 0.146, 0.248, 0.98, 192.0, 0.0, 0.0, 0.0, 0.0, 0.0, 0.0, 0.0, 0.0, 0.0, 1.678635588780354E9, 0.0, 2023-03-12 11:39:48.780
236.0, -153227.7125987664, -187500.02235174447, -187500.02235174447, -157926.16104199423, 173157.53378361868, 187500.0, 187500.0, 187500.0, 0.146, 0.248, 0.98, 192.0, 0.0, 0.0, 0.0, 0.0, 0.0, 0.0, 0.0, 0.0, 0.0, 1.678635588780367E9, 0.0, 2023-03-12 11:39:48.780
237.0, -153095.2338093798, -187500.02235174447, -187500.02235174447, -157741.04389441537, 173515.92165421508, 187500.0, 187500.0, 187500.0, 0.146, 0.248, 0.98, 192.0, 0.0, 0.0, 0.0, 0.0, 0.0, 0.0, 0.0, 0.0, 0.0, 1.67863558878038E9, 0.0, 2023-03-12 11:39:48.780
238.0, -153034.7276371393, -187500.02235174447, -187500.02235174447, -157623.6078290472, 173734.4099562657, 187500.0, 187500.0, 187500.0, 0.146, 0.248, 0.98, 192.0, 0.0, 0.0, 0.0, 0.0, 0.0, 0.0, 0.0, 0.0, 0.0, 1.6786355887803934E9, 0.0, 2023-03-12 11:39:48.780
239.0, -153159.71859213337, -187500.02235174447, -187500.02235174447, -157732.99726641146, 173550.90213428764, 187500.0, 187500.0, 187500.0, 0.146, 0.248, 0.98, 192.0, 0.0, 0.0, 0.0, 0.0, 0.0, 0.0, 0.0, 0.0, 0.0, 1.6786355887804065E9, 0.0, 2023-03-12 11:39:48.780
240.0, -153226.662066777, -187500.02235174447, -187500.02235174447, -157799.00196778798, 173462.76920590035, 187500.0, 187500.0, 187500.0, 0.146, 0.248, 0.98, 192.0, 0.0, 0.0, 0.0, 0.0, 0.0, 0.0, 0.0, 0.0, 0.0, 1.678635588780419E9, 0.0, 2023-03-12 11:39:48.780
241.0, -153109.18129791992, -187500.02235174447, -187500.02235174447, -157637.62237282068, 173784.3661051233, 187500.0, 187500.0, 187500.0, 0.146, 0.248, 0.98, 192.0, 0.0, 0.0, 0.0, 0.0, 0.0, 0.0, 0.0, 0.0, 0.0, 1.6786355892586348E9, 0.0, 2023-03-12 11:39:49.258
242.0, -153016.93564855287, -187500.02235174447, -187500.02235174447, -157484.4682198129, 174066.75804457164, 187500.0, 187500.0, 187500.0, 0.146, 0.248, 0.98, 192.0, 0.0, 0.0, 0.0, 0.0, 0.0, 0.0, 0.0, 0.0, 0.0, 1.678635589258921E9, 0.0, 2023-03-12 11:39:49.258
243.0, -153120.37952189203, -187500.02235174447, -187500.02235174447, -157563.36987774013, 173930.9041417723, 187500.0, 187500.0, 187500.0, 0.146, 0.248, 0.98, 192.0, 0.0, 0.0, 0.0, 0.0, 0.0, 0.0, 0.0, 0.0, 0.0, 1.6786355892589357E9, 0.0, 2023-03-12 11:39:49.258
244.0, -153215.41913931599, -187500.02235174447, -187500.02235174447, -157659.4153236646, 173782.2203376556, 187500.0, 187500.0, 187500.0, 0.14400000000000002, 0.25, 0.98, 192.0, 4.0, 128.0, 7.0, 208.0, 30.0, 160.0, 0.0, 0.0, 0.0, 1.678635589258962E9, 0.0, 2023-03-12 11:39:49.258
245.0, -153124.00050449377, -187500.02235174447, -187500.02235174447, -157531.58569712468, 174043.40047161587, 187500.0, 187500.0, 187500.0, 0.14400000000000002, 0.25, 0.98, 192.0, 0.0, 0.0, 0.0, 0.0, 0.0, 0.0, 0.0, 0.0, 0.0, 1.6786355892590141E9, 0.0, 2023-03-12 11:39:49.259
246.0, -153009.42546241588, -187500.02235174447, -187500.02235174447, -157353.97873568282, 174376.59792621114, 187500.0, 187500.0, 187500.0, 0.14400000000000002, 0.25, 0.98, 192.0, 0.0, 0.0, 0.0, 0.0, 0.0, 0.0, 0.0, 0.0, 0.0, 1.6786355892590275E9, 0.0, 2023-03-12 11:39:49.259
247.0, -153082.5380185292, -187500.02235174447, -187500.02235174447, -157396.49175363683, 174306.90518699947, 187500.0, 187500.0, 187500.0, 0.14400000000000002, 0.25, 0.98, 192.0, 0.0, 0.0, 0.0, 0.0, 0.0, 0.0, 0.0, 0.0, 0.0, 1.67863558925904E9, 0.0, 2023-03-12 11:39:49.259
248.0, -153202.00809264282, -187500.02235174447, -187500.02235174447, -157518.46522312943, 174113.9872806057, 187500.0, 187500.0, 187500.0, 0.14400000000000002, 0.25, 0.98, 192.0, 0.0, 0.0, 0.0, 0.0, 0.0, 0.0, 0.0, 0.0, 0.0, 1.6786355892590528E9, 0.0, 2023-03-12 11:39:49.259
249.0, -153141.39016168, -187500.02235174447, -187500.02235174447, -157430.98049533134, 174308.67097481145, 187500.0, 187500.0, 187500.0, 0.14400000000000002, 0.25, 0.98, 192.0, 0.0, 0.0, 0.0, 0.0, 0.0, 0.0, 0.0, 0.0, 0.0, 1.6786355892590656E9, 0.0, 2023-03-12 11:39:49.259
250.0, -153006.38562516996, -187500.02235174447, -187500.02235174447, -157233.7263505133, 174679.91109846963, 187500.0, 187500.0, 187500.0, 0.14400000000000002, 0.25, 0.98, 192.0, 0.0, 0.0, 0.0, 0.0, 0.0, 0.0, 0.0, 0.0, 0.0, 1.678635589259081E9, 0.0, 2023-03-12 11:39:49.259
251.0, -153047.49048322326, -187500.02235174447, -187500.02235174447, -157234.55336505812, 174681.72158977052, 187500.0, 187500.0, 187500.0, 0.14400000000000002, 0.25, 0.98, 192.0, 0.0, 0.0, 0.0, 0.0, 0.0, 0.0, 0.0, 0.0, 0.0, 1.6786355892590935E9, 0.0, 2023-03-12 11:39:49.259
252.0, -153180.5057144768, -187500.02235174447, -187500.02235174447, -157367.2556718893, 174463.79208133128, 187500.0, 187500.0, 187500.0, 0.14400000000000002, 0.25, 0.98, 192.0, 0.0, 0.0, 0.0, 0.0, 0.0, 0.0, 0.0, 0.0, 0.0, 1.6786355892591064E9, 0.0, 2023-03-12 11:39:49.259
253.0, -153150.3979146955, -187500.02235174447, -187500.02235174447, -157319.64645619947, 174582.7480653224, 187500.0, 187500.0, 187500.0, 0.14400000000000002, 0.25, 0.98, 192.0, 0.0, 0.0, 0.0, 0.0, 0.0, 0.0, 0.0, 0.0, 0.0, 1.6786355892591193E9, 0.0, 2023-03-12 11:39:49.259
254.0, -153011.79474732815, -187500.02235174447, -187500.02235174447, -157119.37482587993, 174964.62761934134, 187500.0, 187500.0, 187500.0, 0.14200000000000002, 0.25, 0.986, 192.0, 4.0, 112.0, 7.0, 208.0, 30.0, 208.0, 0.0, 0.0, 0.0, 1.678635589259132E9, 0.0, 2023-03-12 11:39:49.259
255.0, -153017.18151774188, -187500.02235174447, -187500.02235174447, -157078.33702305998, 175045.69739648074, 187500.0, 187500.0, 187500.0, 0.14200000000000002, 0.25, 0.986, 192.0, 0.0, 0.0, 0.0, 0.0, 0.0, 0.0, 0.0, 0.0, 0.0, 1.6786355892591758E9, 0.0, 2023-03-12 11:39:49.259
0.0, -153156.1423130205, -187500.02235174447, -187500.02235174447, -157212.8051177031, 174821.84467576083, 187500.0, 187500.0, 187500.0, 0.14200000000000002, 0.25, 0.986, 192.0, 0.0, 0.0, 0.0, 0.0, 0.0, 0.0, 0.0, 0.0, 0.0, 1.6786355892591956E9, 0.0, 2023-03-12 11:39:49.259
1.0, -153166.82644687014, -187500.02235174447, -187500.02235174447, -157210.81581244658, 174859.90969656824, 187500.0, 187500.0, 187500.0, 0.14200000000000002, 0.25, 0.986, 192.0, 0.0, 0.0, 0.0, 0.0, 0.0, 0.0, 0.0, 0.0, 0.0, 1.6786355892592127E9, 0.0, 2023-03-12 11:39:49.259
2.0, -153025.4740149348, -187500.02235174447, -187500.02235174447, -157014.2098682177, 175237.9671022853, 187500.0, 187500.0, 187500.0, 0.14200000000000002, 0.25, 0.986, 192.0, 0.0, 0.0, 0.0, 0.0, 0.0, 0.0, 0.0, 0.0, 0.0, 1.6786355892592258E9, 0.0, 2023-03-12 11:39:49.259
3.0, -152991.38760464045, -187500.02235174447, -187500.02235174447, -156926.76984390855, 175401.4030577425, 187500.0, 187500.0, 187500.0, 0.14200000000000002, 0.25, 0.986, 192.0, 0.0, 0.0, 0.0, 0.0, 0.0, 0.0, 0.0, 0.0, 0.0, 1.6786355892592385E9, 0.0, 2023-03-12 11:39:49.259
4.0, -153123.88874577152, -187500.02235174447, -187500.02235174447, -157050.37499074638, 175194.29179361963, 187500.0, 187500.0, 187500.0, 0.14200000000000002, 0.25, 0.986, 192.0, 0.0, 0.0, 0.0, 0.0, 0.0, 0.0, 0.0, 0.0, 0.0, 1.678635589259251E9, 0.0, 2023-03-12 11:39:49.259
5.0, -153161.01499331178, -187500.02235174447, -187500.02235174447, -157087.1883138643, 175158.6407612134, 187500.0, 187500.0, 187500.0, 0.14200000000000002, 0.25, 0.986, 192.0, 0.0, 0.0, 0.0, 0.0, 0.0, 0.0, 0.0, 0.0, 0.0, 1.6786355892592635E9, 0.0, 2023-03-12 11:39:49.259
6.0, -153032.00072431573, -187500.02235174447, -187500.02235174447, -156910.18484952272, 175508.89259682805, 187500.0, 187500.0, 187500.0, 0.14200000000000002, 0.25, 0.986, 192.0, 0.0, 0.0, 0.0, 0.0, 0.0, 0.0, 0.0, 0.0, 0.0, 1.678635589259276E9, 0.0, 2023-03-12 11:39:49.259
7.0, -152969.28172937414, -187500.02235174447, -187500.02235174447, -156787.4067172297, 175741.55190486336, 187500.0, 187500.0, 187500.0, 0.14200000000000002, 0.25, 0.986, 192.0, 0.0, 0.0, 0.0, 0.0, 0.0, 0.0, 0.0, 0.0, 0.0, 1.6786355892593093E9, 0.0, 2023-03-12 11:39:49.259
8.0, -153089.51176279926, -187500.02235174447, -187500.02235174447, -156890.00122427955, 175569.3317138352, 187500.0, 187500.0, 187500.0, 0.14400000000000002, 0.252, 0.982, 192.0, 4.0, 128.0, 7.0, 224.0, 30.0, 176.0, 0.0, 0.0, 0.0, 1.6786355892593236E9, 0.0, 2023-03-12 11:39:49.259
9.0, -153165.5523974362, -187500.02235174447, -187500.02235174447, -156966.77946648354, 175462.78094801676, 187500.0, 187500.0, 187500.0, 0.14400000000000002, 0.252, 0.982, 192.0, 0.0, 0.0, 0.0, 0.0, 0.0, 0.0, 0.0, 0.0, 0.0, 1.6786355892593389E9, 0.0, 2023-03-12 11:39:49.259
10.0, -153054.50893098224, -187500.02235174447, -187500.02235174447, -156814.09470010933, 175769.06690228783, 187500.0, 187500.0, 187500.0, 0.14400000000000002, 0.252, 0.982, 192.0, 0.0, 0.0, 0.0, 0.0, 0.0, 0.0, 0.0, 0.0, 0.0, 1.6786355892593527E9, 0.0, 2023-03-12 11:39:49.259
11.0, -152953.97078442227, -187500.02235174447, -187500.02235174447, -156653.98915457597, 176067.84267042193, 187500.0, 187500.0, 187500.0, 0.14400000000000002, 0.252, 0.982, 192.0, 0.0, 0.0, 0.0, 0.0, 0.0, 0.0, 0.0, 0.0, 0.0, 1.6786355892593803E9, 0.0, 2023-03-12 11:39:49.259
12.0, -153051.35733501404, -187500.02235174447, -187500.02235174447, -156726.0958821888, 175947.83615444138, 187500.0, 187500.0, 187500.0, 0.14400000000000002, 0.252, 0.982, 192.0, 0.0, 0.0, 0.0, 0.0, 0.0, 0.0, 0.0, 0.0, 0.0, 1.6786355892593935E9, 0.0, 2023-03-12 11:39:49.259
13.0, -153153.57186240816, -187500.02235174447, -187500.02235174447, -156831.014970662, 175787.52944320792, 187500.0, 187500.0, 187500.0, 0.14400000000000002, 0.252, 0.982, 192.0, 0.0, 0.0, 0.0, 0.0, 0.0, 0.0, 0.0, 0.0, 0.0, 1.678635589259406E9, 0.0, 2023-03-12 11:39:49.259
14.0, -153067.94232939987, -187500.02235174447, -187500.02235174447, -156712.75189074897, 176035.16442002828, 187500.0, 187500.0, 187500.0, 0.14400000000000002, 0.252, 0.982, 192.0, 0.0, 0.0, 0.0, 0.0, 0.0, 0.0, 0.0, 0.0, 0.0, 1.6786355892594187E9, 0.0, 2023-03-12 11:39:49.259
15.0, -152948.2040343528, -187500.02235174447, -187500.02235174447, -156530.2946007603, 176379.80596778466, 187500.0, 187500.0, 187500.0, 0.14400000000000002, 0.252, 0.982, 192.0, 0.0, 0.0, 0.0, 0.0, 0.0, 0.0, 0.0, 0.0, 0.0, 1.6786355892594476E9, 0.0, 2023-03-12 11:39:49.259
16.0, -153013.4711281623, -187500.02235174447, -187500.02235174447, -156562.36935405366, 176329.89452241594, 187500.0, 187500.0, 187500.0, 0.14400000000000002, 0.252, 0.982, 192.0, 0.0, 0.0, 0.0, 0.0, 0.0, 0.0, 0.0, 0.0, 0.0, 1.6786355892594604E9, 0.0, 2023-03-12 11:39:49.259
17.0, -153131.10835923057, -187500.02235174447, -187500.02235174447, -156683.6946229571, 176132.46156364222, 187500.0, 187500.0, 187500.0, 0.14400000000000002, 0.252, 0.982, 192.0, 0.0, 0.0, 0.0, 0.0, 0.0, 0.0, 0.0, 0.0, 0.0, 1.6786355892594728E9, 0.0, 2023-03-12 11:39:49.259
18.0, -153074.67020448094, -187500.02235174447, -187500.02235174447, -156604.457688863, 176309.0179930947, 187500.0, 187500.0, 187500.0, 0.146, 0.248, 0.98, 192.0, 4.0, 144.0, 7.0, 192.0, 30.0, 160.0, 0.0, 0.0, 0.0, 1.678635589259526E9, 0.0, 2023-03-12 11:39:49.259
19.0, -152937.78812143664, -187500.02235174447, -187500.02235174447, -156407.38235800058, 176684.43789296603, 187500.0, 187500.0, 187500.0, 0.146, 0.248, 0.98, 192.0, 0.0, 0.0, 0.0, 0.0, 0.0, 0.0, 0.0, 0.0, 0.0, 1.6786355892595437E9, 0.0, 2023-03-12 11:39:49.259
20.0, -152970.89105497493, -187500.02235174447, -187500.02235174447, -156399.29102650774, 176708.5107217444, 187500.0, 187500.0, 187500.0, 0.146, 0.248, 0.98, 192.0, 0.0, 0.0, 0.0, 0.0, 0.0, 0.0, 0.0, 0.0, 0.0, 1.678635589259558E9, 0.0, 2023-03-12 11:39:49.259
21.0, -153109.15894617545, -187500.02235174447, -187500.02235174447, -156535.9495921075, 176487.1613964035, 187500.0, 187500.0, 187500.0, 0.146, 0.248, 0.98, 192.0, 0.0, 0.0, 0.0, 0.0, 0.0, 0.0, 0.0, 0.0, 0.0, 1.678635589259586E9, 0.0, 2023-03-12 11:39:49.259
22.0, -153094.07151866812, -187500.02235174447, -187500.02235174447, -156501.86318181315, 176583.3186010502, 187500.0, 187500.0, 187500.0, 0.146, 0.248, 0.98, 192.0, 0.0, 0.0, 0.0, 0.0, 0.0, 0.0, 0.0, 0.0, 0.0, 1.6786355892596157E9, 0.0, 2023-03-12 11:39:49.259
23.0, -152953.07671464406, -187500.02235174447, -187500.02235174447, -156300.67512997094, 176966.85218415884, 187500.0, 187500.0, 187500.0, 0.146, 0.248, 0.98, 192.0, 0.0, 0.0, 0.0, 0.0, 0.0, 0.0, 0.0, 0.0, 0.0, 1.678635589259627E9, 0.0, 2023-03-12 11:39:49.259
24.0, -152948.31579307507, -187500.02235174447, -187500.02235174447, -156245.5333763997, 177071.68186565422, 187500.0, 187500.0, 187500.0, 0.146, 0.248, 0.98, 192.0, 0.0, 0.0, 0.0, 0.0, 0.0, 0.0, 0.0, 0.0, 0.0, 1.6786355892596383E9, 0.0, 2023-03-12 11:39:49.259
25.0, -153083.99088191878, -187500.02235174447, -187500.02235174447, -156376.3134332077, 176852.45595603657, 187500.0, 187500.0, 187500.0, 0.146, 0.248, 0.98, 192.0, 0.0, 0.0, 0.0, 0.0, 0.0, 0.0, 0.0, 0.0, 0.0, 1.6786355892596495E9, 0.0, 2023-03-12 11:39:49.259
26.0, -153100.37471060452, -187500.02235174447, -187500.02235174447, -156382.68368037746, 176872.32665685733, 187500.0, 187500.0, 187500.0, 0.146, 0.248, 0.98, 192.0, 0.0, 0.0, 0.0, 0.0, 0.0, 0.0, 0.0, 0.0, 0.0, 1.6786355892596612E9, 0.0, 2023-03-12 11:39:49.259
27.0, -152961.72683974827, -187500.02235174447, -187500.02235174447, -156190.369271084, 177246.11487938344, 187500.0, 187500.0, 187500.0, 0.146, 0.248, 0.98, 192.0, 0.0, 0.0, 0.0, 0.0, 0.0, 0.0, 0.0, 0.0, 0.0, 1.6786355892596729E9, 0.0, 2023-03-12 11:39:49.259
28.0, -152918.27504852714, -187500.02235174447, -187500.02235174447, -156094.7932117931, 177426.1805327154, 187500.0, 187500.0, 187500.0, 0.148, 0.25, 0.98, 192.0, 4.0, 160.0, 7.0, 208.0, 30.0, 160.0, 0.0, 0.0, 0.0, 1.678635589259684E9, 0.0, 2023-03-12 11:39:49.259
29.0, -153050.79854140265, -187500.02235174447, -187500.02235174447, -156214.39739637345, 177225.21599831773, 187500.0, 187500.0, 187500.0, 0.148, 0.25, 0.98, 192.0, 0.0, 0.0, 0.0, 0.0, 0.0, 0.0, 0.0, 0.0, 0.0, 1.678635589259696E9, 0.0, 2023-03-12 11:39:49.259
30.0, -153096.59726579158, -187500.02235174447, -187500.02235174447, -156256.66454513842, 177175.55042213804, 187500.0, 187500.0, 187500.0, 0.148, 0.25, 0.98, 192.0, 0.0, 0.0, 0.0, 0.0, 0.0, 0.0, 0.0, 0.0, 0.0, 1.6786355892597232E9, 0.0, 2023-03-12 11:39:49.259
31.0, -152970.0640404301, -187500.02235174447, -187500.02235174447, -156081.35981337546, 177519.65552802748, 187500.0, 187500.0, 187500.0, 0.148, 0.25, 0.98, 192.0, 0.0, 0.0, 0.0, 0.0, 0.0, 0.0, 0.0, 0.0, 0.0, 1.6786355892597346E9, 0.0, 2023-03-12 11:39:49.259
32.0, -152897.8008506061, -187500.02235174447, -187500.02235174447, -155947.15993966578, 177770.73267349394, 187500.0, 187500.0, 187500.0, 0.148, 0.25, 0.98, 192.0, 0.0, 0.0, 0.0, 0.0, 0.0, 0.0, 0.0, 0.0, 0.0, 1.67863558925976E9, 0.0, 2023-03-12 11:39:49.259
33.0, -153011.10184325004, -187500.02235174447, -187500.02235174447, -156040.90315591136, 177612.79524717276, 187500.0, 187500.0, 187500.0, 0.148, 0.25, 0.98, 192.0, 0.0, 0.0, 0.0, 0.0, 0.0, 0.0, 0.0, 0.0, 0.0, 1.678635589259771E9, 0.0, 2023-03-12 11:39:49.259
34.0, -153093.51272505673, -187500.02235174447, -187500.02235174447, -156121.6600086284, 177494.53216725972, 187500.0, 187500.0, 187500.0, 0.148, 0.25, 0.98, 192.0, 0.0, 0.0, 0.0, 0.0, 0.0, 0.0, 0.0, 0.0, 0.0, 1.6786355892597823E9, 0.0, 2023-03-12 11:39:49.259
35.0, -152988.54893309463, -187500.02235174447, -187500.02235174447, -155976.23955920216, 177788.50231033593, 187500.0, 187500.0, 187500.0, 0.148, 0.25, 0.98, 192.0, 0.0, 0.0, 0.0, 0.0, 0.0, 0.0, 0.0, 0.0, 0.0, 1.6786355892597933E9, 0.0, 2023-03-12 11:39:49.259
36.0, -152883.00399577667, -187500.02235174447, -187500.02235174447, -155810.18844964367, 178099.45977919817, 187500.0, 187500.0, 187500.0, 0.148, 0.25, 0.98, 192.0, 0.0, 0.0, 0.0, 0.0, 0.0, 0.0, 0.0, 0.0, 0.0, 1.6786355892598045E9, 0.0, 2023-03-12 11:39:49.259
37.0, -152974.22146489876, -187500.02235174447, -187500.02235174447, -155873.6450521523, 177994.7195046806, 187500.0, 187500.0, 187500.0, 0.146, 0.252, 0.978, 192.0, 4.0, 144.0, 7.0, 224.0, 30.0, 144.0, 0.0, 0.0, 0.0, 1.6786355892598155E9, 0.0, 2023-03-12 11:39:49.259
38.0, -153084.01323366325, -187500.02235174447, -187500.02235174447, -155984.80027732853, 177821.94052004107, 187500.0, 187500.0, 187500.0, 0.146, 0.252, 0.978, 192.0, 0.0, 0.0, 0.0, 0.0, 0.0, 0.0, 0.0, 0.0, 0.0, 1.6786355892598271E9, 0.0, 2023-03-12 11:39:49.259
39.0, -153007.6596746039, -187500.02235174447, -187500.02235174447, -155875.61200566436, 178051.9399704862, 187500.0, 187500.0, 187500.0, 0.146, 0.252, 0.978, 192.0, 0.0, 0.0, 0.0, 0.0, 0.0, 0.0, 0.0, 0.0, 0.0, 1.6786355892598383E9, 0.0, 2023-03-12 11:39:49.259
40.0, -152880.0312137641, -187500.02235174447, -187500.02235174447, -155686.20332315008, 178408.18207361485, 187500.0, 187500.0, 187500.0, 0.146, 0.252, 0.978, 192.0, 0.0, 0.0, 0.0, 0.0, 0.0, 0.0, 0.0, 0.0, 0.0, 1.6786355892598493E9, 0.0, 2023-03-12 11:39:49.259
41.0, -152936.96110689177, -187500.02235174447, -187500.02235174447, -155708.1080327163, 178377.0013900997, 187500.0, 187500.0, 187500.0, 0.146, 0.252, 0.978, 192.0, 0.0, 0.0, 0.0, 0.0, 0.0, 0.0, 0.0, 0.0, 0.0, 1.6786355892598605E9, 0.0, 2023-03-12 11:39:49.259
42.0, -153059.40396301795, -187500.02235174447, -187500.02235174447, -155833.21074643265, 178170.82889924396, 187500.0, 187500.0, 187500.0, 0.146, 0.252, 0.978, 192.0, 0.0, 0.0, 0.0, 0.0, 0.0, 0.0, 0.0, 0.0, 0.0, 1.6786355892598715E9, 0.0, 2023-03-12 11:39:49.259
43.0, -153007.74908158174, -187500.02235174447, -187500.02235174447, -155761.34988800884, 178329.57098836554, 187500.0, 187500.0, 187500.0, 0.146, 0.252, 0.978, 192.0, 0.0, 0.0, 0.0, 0.0, 0.0, 0.0, 0.0, 0.0, 0.0, 1.6786355892598839E9, 0.0, 2023-03-12 11:39:49.259
44.0, -152873.54920787207, -187500.02235174447, -187500.02235174447, -155564.22985365748, 178705.4826266149, 187500.0, 187500.0, 187500.0, 0.146, 0.252, 0.978, 192.0, 0.0, 0.0, 0.0, 0.0, 0.0, 0.0, 0.0, 0.0, 0.0, 1.6786355892598948E9, 0.0, 2023-03-12 11:39:49.259
45.0, -152900.1477837739, -187500.02235174447, -187500.02235174447, -155546.57197553778, 178743.32412997773, 187500.0, 187500.0, 187500.0, 0.146, 0.252, 0.978, 192.0, 0.0, 0.0, 0.0, 0.0, 0.0, 0.0, 0.0, 0.0, 0.0, 1.678635589259918E9, 0.0, 2023-03-12 11:39:49.259
46.0, -153037.78982612965, -187500.02235174447, -187500.02235174447, -155681.08477366983, 178518.5326359907, 187500.0, 187500.0, 187500.0, 0.146, 0.252, 0.978, 192.0, 0.0, 0.0, 0.0, 0.0, 0.0, 0.0, 0.0, 0.0, 0.0, 1.6786355892599292E9, 0.0, 2023-03-12 11:39:49.259
47.0, -153028.3126864806, -187500.02235174447, -187500.02235174447, -155656.52020651344, 178595.69085785042, 187500.0, 187500.0, 187500.0, 0.14200000000000002, 0.246, 0.978, 192.0, 4.0, 112.0, 7.0, 176.0, 30.0, 144.0, 0.0, 0.0, 0.0, 1.6786355892599404E9, 0.0, 2023-03-12 11:39:49.259
48.0, -152884.61332137746, -187500.02235174447, -187500.02235174447, -155455.3992099046, 178977.36924616926, 187500.0, 187500.0, 187500.0, 0.14200000000000002, 0.246, 0.978, 192.0, 0.0, 0.0, 0.0, 0.0, 0.0, 0.0, 0.0, 0.0, 0.0, 1.6786355892599523E9, 0.0, 2023-03-12 11:39:49.259
49.0, -152869.6823560813, -187500.02235174447, -187500.02235174447, -155388.6792527055, 179099.05214298394, 187500.0, 187500.0, 187500.0, 0.14200000000000002, 0.246, 0.978, 192.0, 0.0, 0.0, 0.0, 0.0, 0.0, 0.0, 0.0, 0.0, 0.0, 1.6786355892599635E9, 0.0, 2023-03-12 11:39:49.259
50.0, -153007.23499145926, -187500.02235174447, -187500.02235174447, -155518.67699845755, 178880.29561999984, 187500.0, 187500.0, 187500.0, 0.14200000000000002, 0.246, 0.978, 192.0, 0.0, 0.0, 0.0, 0.0, 0.0, 0.0, 0.0, 0.0, 0.0, 1.6786355892599745E9, 0.0, 2023-03-12 11:39:49.259
51.0, -153033.69945689433, -187500.02235174447, -187500.02235174447, -155538.25712660042, 178877.30048624284, 187500.0, 187500.0, 187500.0, 0.14200000000000002, 0.246, 0.978, 192.0, 0.0, 0.0, 0.0, 0.0, 0.0, 0.0, 0.0, 0.0, 0.0, 1.6786355892599852E9, 0.0, 2023-03-12 11:39:49.259
52.0, -152898.06907153953, -187500.02235174447, -187500.02235174447, -155350.4577696869, 179241.83508656445, 187500.0, 187500.0, 187500.0, 0.14200000000000002, 0.246, 0.978, 192.0, 0.0, 0.0, 0.0, 0.0, 0.0, 0.0, 0.0, 0.0, 0.0, 1.6786355892599964E9, 0.0, 2023-03-12 11:39:49.259
53.0, -152846.54830057005, -187500.02235174447, -187500.02235174447, -155246.0974748251, 179439.51391452717, 187500.0, 187500.0, 187500.0, 0.14200000000000002, 0.246, 0.978, 192.0, 0.0, 0.0, 0.0, 0.0, 0.0, 0.0, 0.0, 0.0, 0.0, 1.6786355892600074E9, 0.0, 2023-03-12 11:39:49.260
54.0, -152972.79095325363, -187500.02235174447, -187500.02235174447, -155361.09720004766, 179245.21019997718, 187500.0, 187500.0, 187500.0, 0.14200000000000002, 0.246, 0.978, 192.0, 0.0, 0.0, 0.0, 0.0, 0.0, 0.0, 0.0, 0.0, 0.0, 1.6786355892600183E9, 0.0, 2023-03-12 11:39:49.260
55.0, -153026.2116225018, -187500.02235174447, -187500.02235174447, -155415.6801600075, 179174.39987354277, 187500.0, 187500.0, 187500.0, 0.14200000000000002, 0.246, 0.978, 192.0, 0.0, 0.0, 0.0, 0.0, 0.0, 0.0, 0.0, 0.0, 0.0, 1.6786355892600293E9, 0.0, 2023-03-12 11:39:49.260
56.0, -152903.9028768424, -187500.02235174447, -187500.02235174447, -155247.25976553676, 179505.3174502036, 187500.0, 187500.0, 187500.0, 0.14200000000000002, 0.246, 0.978, 192.0, 0.0, 0.0, 0.0, 0.0, 0.0, 0.0, 0.0, 0.0, 0.0, 1.6786355892600403E9, 0.0, 2023-03-12 11:39:49.260
57.0, -152822.9225066808, -187500.02235174447, -187500.02235174447, -155103.38158647795, 179772.19727899996, 187500.0, 187500.0, 187500.0, 0.14200000000000002, 0.248, 0.978, 192.0, 4.0, 112.0, 7.0, 192.0, 30.0, 144.0, 0.0, 0.0, 0.0, 1.6786355892600515E9, 0.0, 2023-03-12 11:39:49.260
58.0, -152933.51893824566, -187500.02235174447, -187500.02235174447, -155192.00625324325, 179623.37936441653, 187500.0, 187500.0, 187500.0, 0.14200000000000002, 0.248, 0.978, 192.0, 0.0, 0.0, 0.0, 0.0, 0.0, 0.0, 0.0, 0.0, 0.0, 1.6786355892600632E9, 0.0, 2023-03-12 11:39:49.260
59.0, -153025.876346335, -187500.02235174447, -187500.02235174447, -155284.8553997106, 179486.4749296278, 187500.0, 187500.0, 187500.0, 0.14200000000000002, 0.248, 0.978, 192.0, 0.0, 0.0, 0.0, 0.0, 0.0, 0.0, 0.0, 0.0, 0.0, 1.6786355892600741E9, 0.0, 2023-03-12 11:39:49.260
60.0, -152927.68513294283, -187500.02235174447, -187500.02235174447, -155149.38147656698, 179761.87077306162, 187500.0, 187500.0, 187500.0, 0.14200000000000002, 0.248, 0.978, 192.0, 0.0, 0.0, 0.0, 0.0, 0.0, 0.0, 0.0, 0.0, 0.0, 1.6786355892600973E9, 0.0, 2023-03-12 11:39:49.260
61.0, -152817.2228118447, -187500.02235174447, -187500.02235174447, -154976.31191924954, 180082.84182343984, 187500.0, 187500.0, 187500.0, 0.14200000000000002, 0.248, 0.978, 192.0, 0.0, 0.0, 0.0, 0.0, 0.0, 0.0, 0.0, 0.0, 0.0, 1.6786355892601085E9, 0.0, 2023-03-12 11:39:49.260
62.0, -152902.40530996388, -187500.02235174447, -187500.02235174447, -155030.51489955364, 179994.59713633027, 187500.0, 187500.0, 187500.0, 0.14200000000000002, 0.248, 0.978, 192.0, 0.0, 0.0, 0.0, 0.0, 0.0, 0.0, 0.0, 0.0, 0.0, 1.6786355892601192E9, 0.0, 2023-03-12 11:39:49.260
63.0, -153013.89581130695, -187500.02235174447, -187500.02235174447, -155146.34163932106, 179813.45859926447, 187500.0, 187500.0, 187500.0, 0.14200000000000002, 0.248, 0.978, 192.0, 0.0, 0.0, 0.0, 0.0, 0.0, 0.0, 0.0, 0.0, 0.0, 1.6786355892601304E9, 0.0, 2023-03-12 11:39:49.260
64.0, -152939.95624064878, -187500.02235174447, -187500.02235174447, -155045.49056833872, 180028.52708441342, 187500.0, 187500.0, 187500.0, 0.14200000000000002, 0.248, 0.978, 192.0, 0.0, 0.0, 0.0, 0.0, 0.0, 0.0, 0.0, 0.0, 0.0, 1.6786355892601428E9, 0.0, 2023-03-12 11:39:49.260
65.0, -152815.0099891436, -187500.02235174447, -187500.02235174447, -154854.80783639048, 180389.10542596644, 187500.0, 187500.0, 187500.0, 0.14200000000000002, 0.248, 0.978, 192.0, 0.0, 0.0, 0.0, 0.0, 0.0, 0.0, 0.0, 0.0, 0.0, 1.678635589260154E9, 0.0, 2023-03-12 11:39:49.260
66.0, -152868.09538222497, -187500.02235174447, -187500.02235174447, -154868.3082900415, 180371.29108563557, 187500.0, 187500.0, 187500.0, 0.14200000000000002, 0.248, 0.978, 192.0, 0.0, 0.0, 0.0, 0.0, 0.0, 0.0, 0.0, 0.0, 0.0, 1.6786355892601647E9, 0.0, 2023-03-12 11:39:49.260
67.0, -152998.27194193267, -187500.02235174447, -187500.02235174447, -154997.54607648207, 180158.1224987653, 187500.0, 187500.0, 187500.0, 0.14, 0.252, 0.984, 192.0, 4.0, 96.0, 7.0, 224.0, 30.0, 192.0, 0.0, 0.0, 0.0, 1.678635589260176E9, 0.0, 2023-03-12 11:39:49.260
68.0, -152961.79389498162, -187500.02235174447, -187500.02235174447, -154939.319782176, 180296.4127417103, 187500.0, 187500.0, 187500.0, 0.14, 0.252, 0.984, 192.0, 0.0, 0.0, 0.0, 0.0, 0.0, 0.0, 0.0, 0.0, 0.0, 1.6786355892601879E9, 0.0, 2023-03-12 11:39:49.260
69.0, -152824.48712879268, -187500.02235174447, -187500.02235174447, -154739.40577976772, 180675.92301081694, 187500.0, 187500.0, 187500.0, 0.14, 0.252, 0.984, 192.0, 0.0, 0.0, 0.0, 0.0, 0.0, 0.0, 0.0, 0.0, 0.0, 1.6786355892601988E9, 0.0, 2023-03-12 11:39:49.260
70.0, -152836.89234696535, -187500.02235174447, -187500.02235174447, -154708.60507590833, 180736.94327317993, 187500.0, 187500.0, 187500.0, 0.14, 0.252, 0.984, 192.0, 0.0, 0.0, 0.0, 0.0, 0.0, 0.0, 0.0, 0.0, 0.0, 1.6786355892602096E9, 0.0, 2023-03-12 11:39:49.260
71.0, -152971.0028136972, -187500.02235174447, -187500.02235174447, -154842.29085949552, 180514.0516774716, 187500.0, 187500.0, 187500.0, 0.14, 0.252, 0.984, 192.0, 0.0, 0.0, 0.0, 0.0, 0.0, 0.0, 0.0, 0.0, 0.0, 1.6786355892602208E9, 0.0, 2023-03-12 11:39:49.260
72.0, -152958.48583680223, -187500.02235174447, -187500.02235174447, -154820.7437778406, 180577.8212044026, 187500.0, 187500.0, 187500.0, 0.14, 0.252, 0.984, 192.0, 0.0, 0.0, 0.0, 0.0, 0.0, 0.0, 0.0, 0.0, 0.0, 1.678635589260232E9, 0.0, 2023-03-12 11:39:49.260
73.0, -152818.1168816229, -187500.02235174447, -187500.02235174447, -154621.2097550881, 180958.24789503193, 187500.0, 187500.0, 187500.0, 0.14, 0.252, 0.984, 192.0, 0.0, 0.0, 0.0, 0.0, 0.0, 0.0, 0.0, 0.0, 0.0, 1.6786355892602427E9, 0.0, 2023-03-12 11:39:49.260
74.0, -152801.28601804806, -187500.02235174447, -187500.02235174447, -154547.5384053634, 181096.80635891037, 187500.0, 187500.0, 187500.0, 0.14, 0.252, 0.984, 192.0, 0.0, 0.0, 0.0, 0.0, 0.0, 0.0, 0.0, 0.0, 0.0, 1.678635589260254E9, 0.0, 2023-03-12 11:39:49.260
75.0, -152939.37509529295, -187500.02235174447, -187500.02235174447, -154675.63625283673, 180881.46965282795, 187500.0, 187500.0, 187500.0, 0.14, 0.252, 0.984, 192.0, 0.0, 0.0, 0.0, 0.0, 0.0, 0.0, 0.0, 0.0, 0.0, 1.6786355892602773E9, 0.0, 2023-03-12 11:39:49.260
76.0, -152975.98725271074, -187500.02235174447, -187500.02235174447, -154705.5652386624, 180861.50954502937, 187500.0, 187500.0, 187500.0, 0.14, 0.252, 0.984, 192.0, 0.0, 0.0, 0.0, 0.0, 0.0, 0.0, 0.0, 0.0, 0.0, 1.6786355892602885E9, 0.0, 2023-03-12 11:39:49.260
77.0, -152842.18971040126, -187500.02235174447, -187500.02235174447, -154523.28676262937, 181220.56796795942, 187500.0, 187500.0, 187500.0, 0.14, 0.248, 0.984, 192.0, 4.0, 96.0, 7.0, 192.0, 30.0, 192.0, 0.0, 0.0, 0.0, 1.6786355892602992E9, 0.0, 2023-03-12 11:39:49.260
78.0, -152781.4153172273, -187500.02235174447, -187500.02235174447, -154406.9459327395, 181437.46929615372, 187500.0, 187500.0, 187500.0, 0.14, 0.248, 0.984, 192.0, 0.0, 0.0, 0.0, 0.0, 0.0, 0.0, 0.0, 0.0, 0.0, 1.678635589260311E9, 0.0, 2023-03-12 11:39:49.260
79.0, -152906.40627222136, -187500.02235174447, -187500.02235174447, -154514.6142857807, 181253.96147417565, 187500.0, 187500.0, 187500.0, 0.14, 0.248, 0.984, 192.0, 0.0, 0.0, 0.0, 0.0, 0.0, 0.0, 0.0, 0.0, 0.0, 1.678635589260322E9, 0.0, 2023-03-12 11:39:49.260
80.0, -152970.9581102083, -187500.02235174447, -187500.02235174447, -154579.74726912347, 181165.51562136598, 187500.0, 187500.0, 187500.0, 0.14, 0.248, 0.984, 192.0, 0.0, 0.0, 0.0, 0.0, 0.0, 0.0, 0.0, 0.0, 0.0, 1.678635589260333E9, 0.0, 2023-03-12 11:39:49.260
81.0, -152852.56091982854, -187500.02235174447, -187500.02235174447, -154418.3006189228, 181485.4361397548, 187500.0, 187500.0, 187500.0, 0.14, 0.248, 0.984, 192.0, 0.0, 0.0, 0.0, 0.0, 0.0, 0.0, 0.0, 0.0, 0.0, 1.678635589260344E9, 0.0, 2023-03-12 11:39:49.260
82.0, -152763.8021425965, -187500.02235174447, -187500.02235174447, -154266.912253727, 181766.53167802474, 187500.0, 187500.0, 187500.0, 0.14, 0.248, 0.984, 192.0, 0.0, 0.0, 0.0, 0.0, 0.0, 0.0, 0.0, 0.0, 0.0, 1.678635589260355E9, 0.0, 2023-03-12 11:39:49.260
83.0, -152866.75427755766, -187500.02235174447, -187500.02235174447, -154346.75268492135, 181631.10245837003, 187500.0, 187500.0, 187500.0, 0.14, 0.248, 0.984, 192.0, 0.0, 0.0, 0.0, 0.0, 0.0, 0.0, 0.0, 0.0, 0.0, 1.6786355892603664E9, 0.0, 2023-03-12 11:39:49.260
84.0, -152959.849293214, -187500.02235174447, -187500.02235174447, -154441.25586047838, 181482.17278506432, 187500.0, 187500.0, 187500.0, 0.14, 0.248, 0.984, 192.0, 0.0, 0.0, 0.0, 0.0, 0.0, 0.0, 0.0, 0.0, 0.0, 1.6786355892603772E9, 0.0, 2023-03-12 11:39:49.260
85.0, -152867.24601593567, -187500.02235174447, -187500.02235174447, -154312.93449556048, 181743.66584344697, 187500.0, 187500.0, 187500.0, 0.14, 0.248, 0.984, 192.0, 0.0, 0.0, 0.0, 0.0, 0.0, 0.0, 0.0, 0.0, 0.0, 1.6786355892603881E9, 0.0, 2023-03-12 11:39:49.260
86.0, -152754.2132442252, -187500.02235174447, -187500.02235174447, -154135.88632773, 182075.61160035274, 187500.0, 187500.0, 187500.0, 0.14, 0.248, 0.984, 192.0, 0.0, 0.0, 0.0, 0.0, 0.0, 0.0, 0.0, 0.0, 0.0, 1.6786355892604003E9, 0.0, 2023-03-12 11:39:49.260
87.0, -152829.29275385055, -187500.02235174447, -187500.02235174447, -154179.96396779586, 182002.56609947278, 187500.0, 187500.0, 187500.0, 0.14400000000000002, 0.248, 0.98, 192.0, 4.0, 128.0, 7.0, 192.0, 30.0, 160.0, 0.0, 0.0, 0.0, 1.6786355892604115E9, 0.0, 2023-03-12 11:39:49.260
88.0, -152948.0922756305, -187500.02235174447, -187500.02235174447, -154300.39516692105, 181809.17880644547, 187500.0, 187500.0, 187500.0, 0.14400000000000002, 0.248, 0.98, 192.0, 0.0, 0.0, 0.0, 0.0, 0.0, 0.0, 0.0, 0.0, 0.0, 1.6786355892604234E9, 0.0, 2023-03-12 11:39:49.260
89.0, -152885.9320743003, -187500.02235174447, -187500.02235174447, -154211.32346526664, 182003.8625006512, 187500.0, 187500.0, 187500.0, 0.14400000000000002, 0.248, 0.98, 192.0, 0.0, 0.0, 0.0, 0.0, 0.0, 0.0, 0.0, 0.0, 0.0, 1.6786355892604344E9, 0.0, 2023-03-12 11:39:49.260
90.0, -152752.73802909112, -187500.02235174447, -187500.02235174447, -154015.54453558262, 182372.4427667192, 187500.0, 187500.0, 187500.0, 0.14400000000000002, 0.248, 0.98, 192.0, 0.0, 0.0, 0.0, 0.0, 0.0, 0.0, 0.0, 0.0, 0.0, 1.6786355892604575E9, 0.0, 2023-03-12 11:39:49.260
91.0, -152794.42403250028, -187500.02235174447, -187500.02235174447, -154017.86911700596, 182376.13080455433, 187500.0, 187500.0, 187500.0, 0.14400000000000002, 0.248, 0.98, 192.0, 0.0, 0.0, 0.0, 0.0, 0.0, 0.0, 0.0, 0.0, 0.0, 1.6786355892604685E9, 0.0, 2023-03-12 11:39:49.260
92.0, -152924.13120557443, -187500.02235174447, -187500.02235174447, -154148.22449066932, 182159.1847728711, 187500.0, 187500.0, 187500.0, 0.14400000000000002, 0.248, 0.98, 192.0, 0.0, 0.0, 0.0, 0.0, 0.0, 0.0, 0.0, 0.0, 0.0, 1.6786355892604847E9, 0.0, 2023-03-12 11:39:49.260
93.0, -152876.96902477372, -187500.02235174447, -187500.02235174447, -154093.66388245393, 182285.1815563657, 187500.0, 187500.0, 187500.0, 0.14400000000000002, 0.248, 0.98, 192.0, 0.0, 0.0, 0.0, 0.0, 0.0, 0.0, 0.0, 0.0, 0.0, 1.678635589260517E9, 0.0, 2023-03-12 11:39:49.260
94.0, -152715.7458920176, -187500.02235174447, -187500.02235174447, -153884.18333341877, 182677.09704364504, 187500.0, 187500.0, 187500.0, 0.14400000000000002, 0.248, 0.98, 192.0, 0.0, 0.0, 0.0, 0.0, 0.0, 0.0, 0.0, 0.0, 0.0, 1.6786355892605295E9, 0.0, 2023-03-12 11:39:49.260
95.0, -152728.28522065704, -187500.02235174447, -187500.02235174447, -153845.313649811, 182755.88694285, 187500.0, 187500.0, 187500.0, 0.14400000000000002, 0.248, 0.98, 192.0, 0.0, 0.0, 0.0, 0.0, 0.0, 0.0, 0.0, 0.0, 0.0, 1.6786355892605448E9, 0.0, 2023-03-12 11:39:49.260
96.0, -152894.22457149322, -187500.02235174447, -187500.02235174447, -153991.71757599327, 182519.9419283798, 187500.0, 187500.0, 187500.0, 0.14400000000000002, 0.248, 0.98, 192.0, 0.0, 0.0, 0.0, 0.0, 0.0, 0.0, 0.0, 0.0, 0.0, 1.6786355892605703E9, 0.0, 2023-03-12 11:39:49.260
97.0, -152915.19050779231, -187500.02235174447, -187500.02235174447, -153993.5057155497, 182552.6872340068, 187500.0, 187500.0, 187500.0, 0.148, 0.254, 0.978, 192.0, 4.0, 160.0, 7.0, 240.0, 30.0, 144.0, 0.0, 0.0, 0.0, 1.6786355892605827E9, 0.0, 2023-03-12 11:39:49.260
98.0, -152771.20057001122, -187500.02235174447, -187500.02235174447, -153796.07275677595, 182929.91762517902, 187500.0, 187500.0, 187500.0, 0.148, 0.254, 0.978, 192.0, 0.0, 0.0, 0.0, 0.0, 0.0, 0.0, 0.0, 0.0, 0.0, 1.6786355892605958E9, 0.0, 2023-03-12 11:39:49.260
99.0, -152735.25896492708, -187500.02235174447, -187500.02235174447, -153709.05741561146, 183092.66067655812, 187500.0, 187500.0, 187500.0, 0.148, 0.254, 0.978, 192.0, 0.0, 0.0, 0.0, 0.0, 0.0, 0.0, 0.0, 0.0, 0.0, 1.6786355892606068E9, 0.0, 2023-03-12 11:39:49.260
100.0, -152869.16826595884, -187500.02235174447, -187500.02235174447, -153832.059065349, 182885.01297056832, 187500.0, 187500.0, 187500.0, 0.148, 0.254, 0.978, 192.0, 0.0, 0.0, 0.0, 0.0, 0.0, 0.0, 0.0, 0.0, 0.0, 1.6786355892606175E9, 0.0, 2023-03-12 11:39:49.260
101.0, -152902.07003379703, -187500.02235174447, -187500.02235174447, -153863.6197285199, 182852.2676649413, 187500.0, 187500.0, 187500.0, 0.148, 0.254, 0.978, 192.0, 0.0, 0.0, 0.0, 0.0, 0.0, 0.0, 0.0, 0.0, 0.0, 1.6786355892606287E9, 0.0, 2023-03-12 11:39:49.260
102.0, -152750.1452267343, -187500.02235174447, -187500.02235174447, -153673.58519716086, 183215.28234663993, 187500.0, 187500.0, 187500.0, 0.148, 0.254, 0.978, 192.0, 0.0, 0.0, 0.0, 0.0, 0.0, 0.0, 0.0, 0.0, 0.0, 1.678635589260642E9, 0.0, 2023-03-12 11:39:49.260
103.0, -152679.96074914467, -187500.02235174447, -187500.02235174447, -153546.82845435484, 183452.85903845538, 187500.0, 187500.0, 187500.0, 0.148, 0.254, 0.978, 192.0, 0.0, 0.0, 0.0, 0.0, 0.0, 0.0, 0.0, 0.0, 0.0, 1.6786355892606533E9, 0.0, 2023-03-12 11:39:49.260
104.0, -152821.69316073577, -187500.02235174447, -187500.02235174447, -153659.95063304313, 183270.3570449778, 187500.0, 187500.0, 187500.0, 0.148, 0.254, 0.978, 192.0, 0.0, 0.0, 0.0, 0.0, 0.0, 0.0, 0.0, 0.0, 0.0, 1.678635589260664E9, 0.0, 2023-03-12 11:39:49.260
105.0, -152919.72791191674, -187500.02235174447, -187500.02235174447, -153744.75315150656, 183155.26791277743, 187500.0, 187500.0, 187500.0, 0.148, 0.254, 0.978, 192.0, 0.0, 0.0, 0.0, 0.0, 0.0, 0.0, 0.0, 0.0, 0.0, 1.6786355897386456E9, 0.0, 2023-03-12 11:39:49.738
106.0, -152810.83021293048, -187500.02235174447, -187500.02235174447, -153592.2024955991, 183462.29147461551, 187500.0, 187500.0, 187500.0, 0.14, 0.254, 0.98, 192.0, 4.0, 96.0, 7.0, 240.0, 30.0, 160.0, 0.0, 0.0, 0.0, 1.6786355897389188E9, 0.0, 2023-03-12 11:39:49.738
107.0, -152710.67204602624, -187500.02235174447, -187500.02235174447, -153430.48762446496, 183761.134297983, 187500.0, 187500.0, 187500.0, 0.14, 0.254, 0.98, 192.0, 0.0, 0.0, 0.0, 0.0, 0.0, 0.0, 0.0, 0.0, 0.0, 1.6786355897389426E9, 0.0, 2023-03-12 11:39:49.738
108.0, -152809.7126257077, -187500.02235174447, -187500.02235174447, -153501.5885235773, 183640.70309885778, 187500.0, 187500.0, 187500.0, 0.14, 0.254, 0.98, 192.0, 0.0, 0.0, 0.0, 0.0, 0.0, 0.0, 0.0, 0.0, 0.0, 1.6786355897389572E9, 0.0, 2023-03-12 11:39:49.738
109.0, -152907.23328676622, -187500.02235174447, -187500.02235174447, -153602.79722247092, 183482.09512020292, 187500.0, 187500.0, 187500.0, 0.14, 0.254, 0.98, 192.0, 0.0, 0.0, 0.0, 0.0, 0.0, 0.0, 0.0, 0.0, 0.0, 1.6786355897389717E9, 0.0, 2023-03-12 11:39:49.738
110.0, -152797.5085732351, -187500.02235174447, -187500.02235174447, -153472.35244182975, 183742.3141291516, 187500.0, 187500.0, 187500.0, 0.14, 0.254, 0.98, 192.0, 0.0, 0.0, 0.0, 0.0, 0.0, 0.0, 0.0, 0.0, 0.0, 1.6786355897389953E9, 0.0, 2023-03-12 11:39:49.738
111.0, -152663.24164429208, -187500.02235174447, -187500.02235174447, -153282.36261395965, 184094.08588338923, 187500.0, 187500.0, 187500.0, 0.14, 0.254, 0.98, 192.0, 0.0, 0.0, 0.0, 0.0, 0.0, 0.0, 0.0, 0.0, 0.0, 1.678635589739011E9, 0.0, 2023-03-12 11:39:49.739
112.0, -152744.043200498, -187500.02235174447, -187500.02235174447, -153321.1428905896, 184034.85376058266, 187500.0, 187500.0, 187500.0, 0.14, 0.254, 0.98, 192.0, 0.0, 0.0, 0.0, 0.0, 0.0, 0.0, 0.0, 0.0, 0.0, 1.6786355897390254E9, 0.0, 2023-03-12 11:39:49.739
113.0, -152893.17403950382, -187500.02235174447, -187500.02235174447, -153455.99096488845, 183822.86981616853, 187500.0, 187500.0, 187500.0, 0.14, 0.254, 0.98, 192.0, 0.0, 0.0, 0.0, 0.0, 0.0, 0.0, 0.0, 0.0, 0.0, 1.67863558973904E9, 0.0, 2023-03-12 11:39:49.739
114.0, -152846.10126568095, -187500.02235174447, -187500.02235174447, -153378.6092255842, 183995.3805798746, 187500.0, 187500.0, 187500.0, 0.14, 0.254, 0.98, 192.0, 0.0, 0.0, 0.0, 0.0, 0.0, 0.0, 0.0, 0.0, 0.0, 1.678635589739054E9, 0.0, 2023-03-12 11:39:49.739
115.0, -152704.90529595676, -187500.02235174447, -187500.02235174447, -153177.53293246424, 184370.84518323484, 187500.0, 187500.0, 187500.0, 0.14, 0.254, 0.98, 192.0, 0.0, 0.0, 0.0, 0.0, 0.0, 0.0, 0.0, 0.0, 0.0, 1.678635589739068E9, 0.0, 2023-03-12 11:39:49.739
116.0, -152737.82941553945, -187500.02235174447, -187500.02235174447, -153167.407592226, 184392.36991314532, 187500.0, 187500.0, 187500.0, 0.146, 0.248, 0.972, 192.0, 4.0, 144.0, 7.0, 192.0, 30.0, 96.0, 0.0, 0.0, 0.0, 1.6786355897390826E9, 0.0, 2023-03-12 11:39:49.739
117.0, -152870.41996364834, -187500.02235174447, -187500.02235174447, -153300.02049207932, 184171.53467792686, 187500.0, 187500.0, 187500.0, 0.146, 0.248, 0.972, 192.0, 0.0, 0.0, 0.0, 0.0, 0.0, 0.0, 0.0, 0.0, 0.0, 1.6786355897390983E9, 0.0, 2023-03-12 11:39:49.739
118.0, -152831.14794864034, -187500.02235174447, -187500.02235174447, -153254.64645083505, 184281.3935019247, 187500.0, 187500.0, 187500.0, 0.146, 0.248, 0.972, 192.0, 0.0, 0.0, 0.0, 0.0, 0.0, 0.0, 0.0, 0.0, 0.0, 1.6786355897391274E9, 0.0, 2023-03-12 11:39:49.739
119.0, -152668.69546993918, -187500.02235174447, -187500.02235174447, -153043.4224657324, 184676.32647470554, 187500.0, 187500.0, 187500.0, 0.146, 0.248, 0.972, 192.0, 0.0, 0.0, 0.0, 0.0, 0.0, 0.0, 0.0, 0.0, 0.0, 1.6786355897391467E9, 0.0, 2023-03-12 11:39:49.739
120.0, -152666.9296821272, -187500.02235174447, -187500.02235174447, -152990.29236916214, 184776.73051079878, 187500.0, 187500.0, 187500.0, 0.146, 0.248, 0.972, 192.0, 0.0, 0.0, 0.0, 0.0, 0.0, 0.0, 0.0, 0.0, 0.0, 1.6786355897391999E9, 0.0, 2023-03-12 11:39:49.739
121.0, -152828.30927709452, -187500.02235174447, -187500.02235174447, -153134.30465868767, 184545.54641789754, 187500.0, 187500.0, 187500.0, 0.146, 0.248, 0.972, 192.0, 0.0, 0.0, 0.0, 0.0, 0.0, 0.0, 0.0, 0.0, 0.0, 1.678635589739215E9, 0.0, 2023-03-12 11:39:49.739
122.0, -152859.24409142067, -187500.02235174447, -187500.02235174447, -153146.37460069355, 184560.4550314492, 187500.0, 187500.0, 187500.0, 0.146, 0.248, 0.972, 192.0, 0.0, 0.0, 0.0, 0.0, 0.0, 0.0, 0.0, 0.0, 0.0, 1.6786355897392287E9, 0.0, 2023-03-12 11:39:49.739
123.0, -152716.37174086235, -187500.02235174447, -187500.02235174447, -152950.5509675206, 184937.5066086658, 187500.0, 187500.0, 187500.0, 0.146, 0.248, 0.972, 192.0, 0.0, 0.0, 0.0, 0.0, 0.0, 0.0, 0.0, 0.0, 0.0, 1.6786355897392435E9, 0.0, 2023-03-12 11:39:49.739
124.0, -152670.7741821735, -187500.02235174447, -187500.02235174447, -152852.78443727308, 185121.81909344424, 187500.0, 187500.0, 187500.0, 0.146, 0.248, 0.972, 192.0, 0.0, 0.0, 0.0, 0.0, 0.0, 0.0, 0.0, 0.0, 0.0, 1.6786355897392576E9, 0.0, 2023-03-12 11:39:49.739
125.0, -152800.12372733638, -187500.02235174447, -187500.02235174447, -152971.1145724195, 184923.31325093668, 187500.0, 187500.0, 187500.0, 0.146, 0.248, 0.972, 192.0, 0.0, 0.0, 0.0, 0.0, 0.0, 0.0, 0.0, 0.0, 0.0, 1.6786355897392716E9, 0.0, 2023-03-12 11:39:49.739
126.0, -152837.54054755456, -187500.02235174447, -187500.02235174447, -153011.03478801667, 184877.60393352556, 187500.0, 187500.0, 187500.0, 0.148, 0.242, 0.98, 192.0, 4.0, 160.0, 7.0, 144.0, 30.0, 160.0, 0.0, 0.0, 0.0, 1.678635589739286E9, 0.0, 2023-03-12 11:39:49.739
127.0, -152687.537990515, -187500.02235174447, -187500.02235174447, -152825.2247363597, 185233.6672226986, 187500.0, 187500.0, 187500.0, 0.148, 0.242, 0.98, 192.0, 0.0, 0.0, 0.0, 0.0, 0.0, 0.0, 0.0, 0.0, 0.0, 1.678635589739301E9, 0.0, 2023-03-12 11:39:49.739
128.0, -152605.28357091948, -187500.02235174447, -187500.02235174447, -152688.61087424887, 185491.3828362683, 187500.0, 187500.0, 187500.0, 0.148, 0.242, 0.98, 192.0, 0.0, 0.0, 0.0, 0.0, 0.0, 0.0, 0.0, 0.0, 0.0, 1.6786355897393212E9, 0.0, 2023-03-12 11:39:49.739
129.0, -152737.98587775065, -187500.02235174447, -187500.02235174447, -152793.99934935564, 185325.8011133434, 187500.0, 187500.0, 187500.0, 0.148, 0.242, 0.98, 192.0, 0.0, 0.0, 0.0, 0.0, 0.0, 0.0, 0.0, 0.0, 0.0, 1.6786355897393353E9, 0.0, 2023-03-12 11:39:49.739
130.0, -152842.61439354593, -187500.02235174447, -187500.02235174447, -152886.2449987227, 185198.30676297031, 187500.0, 187500.0, 187500.0, 0.148, 0.242, 0.98, 192.0, 0.0, 0.0, 0.0, 0.0, 0.0, 0.0, 0.0, 0.0, 0.0, 1.6786355897393491E9, 0.0, 2023-03-12 11:39:49.739
131.0, -152737.0918079724, -187500.02235174447, -187500.02235174447, -152738.4999678731, 185494.64619095877, 187500.0, 187500.0, 187500.0, 0.148, 0.242, 0.98, 192.0, 0.0, 0.0, 0.0, 0.0, 0.0, 0.0, 0.0, 0.0, 0.0, 1.6786355897393632E9, 0.0, 2023-03-12 11:39:49.739
132.0, -152627.94823979714, -187500.02235174447, -187500.02235174447, -152568.1126198903, 185810.78926453463, 187500.0, 187500.0, 187500.0, 0.148, 0.242, 0.98, 192.0, 0.0, 0.0, 0.0, 0.0, 0.0, 0.0, 0.0, 0.0, 0.0, 1.6786355897393775E9, 0.0, 2023-03-12 11:39:49.739
133.0, -152719.83626125293, -187500.02235174447, -187500.02235174447, -152630.11635900932, 185707.32303945103, 187500.0, 187500.0, 187500.0, 0.148, 0.242, 0.98, 192.0, 0.0, 0.0, 0.0, 0.0, 0.0, 0.0, 0.0, 0.0, 0.0, 1.6786355897393916E9, 0.0, 2023-03-12 11:39:49.739
134.0, -152823.078968892, -187500.02235174447, -187500.02235174447, -152736.82358703896, 185539.88612173632, 187500.0, 187500.0, 187500.0, 0.148, 0.242, 0.98, 192.0, 0.0, 0.0, 0.0, 0.0, 0.0, 0.0, 0.0, 0.0, 0.0, 1.6786355897394056E9, 0.0, 2023-03-12 11:39:49.739
135.0, -152737.11415971688, -187500.02235174447, -187500.02235174447, -152622.31560019442, 185776.23346760674, 187500.0, 187500.0, 187500.0, 0.148, 0.242, 0.98, 192.0, 0.0, 0.0, 0.0, 0.0, 0.0, 0.0, 0.0, 0.0, 0.0, 1.6786355897394383E9, 0.0, 2023-03-12 11:39:49.739
136.0, -152616.4817948916, -187500.02235174447, -187500.02235174447, -152435.11974038123, 186128.8769398781, 187500.0, 187500.0, 187500.0, 0.146, 0.246, 0.978, 192.0, 4.0, 144.0, 7.0, 176.0, 30.0, 144.0, 0.0, 0.0, 0.0, 1.6786355897394528E9, 0.0, 2023-03-12 11:39:49.739
137.0, -152677.8820369103, -187500.02235174447, -187500.02235174447, -152459.14786567067, 186095.43873017296, 187500.0, 187500.0, 187500.0, 0.146, 0.246, 0.978, 192.0, 0.0, 0.0, 0.0, 0.0, 0.0, 0.0, 0.0, 0.0, 0.0, 1.6786355897394679E9, 0.0, 2023-03-12 11:39:49.739
138.0, -152806.85160241745, -187500.02235174447, -187500.02235174447, -152586.37399511028, 185889.60151548404, 187500.0, 187500.0, 187500.0, 0.146, 0.246, 0.978, 192.0, 0.0, 0.0, 0.0, 0.0, 0.0, 0.0, 0.0, 0.0, 0.0, 1.6786355897394817E9, 0.0, 2023-03-12 11:39:49.739
139.0, -152764.49504667462, -187500.02235174447, -187500.02235174447, -152519.38581697774, 186046.53311330476, 187500.0, 187500.0, 187500.0, 0.146, 0.246, 0.978, 192.0, 0.0, 0.0, 0.0, 0.0, 0.0, 0.0, 0.0, 0.0, 0.0, 1.678635589739496E9, 0.0, 2023-03-12 11:39:49.739
140.0, -152624.39431242875, -187500.02235174447, -187500.02235174447, -152320.36588434767, 186427.6527080122, 187500.0, 187500.0, 187500.0, 0.146, 0.246, 0.978, 192.0, 0.0, 0.0, 0.0, 0.0, 0.0, 0.0, 0.0, 0.0, 0.0, 1.67863558973951E9, 0.0, 2023-03-12 11:39:49.739
141.0, -152648.48949295157, -187500.02235174447, -187500.02235174447, -152302.17156436105, 186471.03744399996, 187500.0, 187500.0, 187500.0, 0.146, 0.246, 0.978, 192.0, 0.0, 0.0, 0.0, 0.0, 0.0, 0.0, 0.0, 0.0, 0.0, 1.678635589739524E9, 0.0, 2023-03-12 11:39:49.739
142.0, -152785.12570680687, -187500.02235174447, -187500.02235174447, -152435.81264445934, 186251.65507217112, 187500.0, 187500.0, 187500.0, 0.146, 0.246, 0.978, 192.0, 0.0, 0.0, 0.0, 0.0, 0.0, 0.0, 0.0, 0.0, 0.0, 1.6786355897395377E9, 0.0, 2023-03-12 11:39:49.739
143.0, -152768.67482288775, -187500.02235174447, -187500.02235174447, -152405.7271964225, 186336.6811080791, 187500.0, 187500.0, 187500.0, 0.146, 0.246, 0.978, 192.0, 0.0, 0.0, 0.0, 0.0, 0.0, 0.0, 0.0, 0.0, 0.0, 1.6786355897395523E9, 0.0, 2023-03-12 11:39:49.739
144.0, -152627.81412933042, -187500.02235174447, -187500.02235174447, -152205.61202831412, 186721.4216853883, 187500.0, 187500.0, 187500.0, 0.146, 0.246, 0.978, 192.0, 0.0, 0.0, 0.0, 0.0, 0.0, 0.0, 0.0, 0.0, 0.0, 1.6786355897395663E9, 0.0, 2023-03-12 11:39:49.739
145.0, -152613.6207716013, -187500.02235174447, -187500.02235174447, -152140.14376880453, 186847.21730318278, 187500.0, 187500.0, 187500.0, 0.146, 0.246, 0.978, 192.0, 0.0, 0.0, 0.0, 0.0, 0.0, 0.0, 0.0, 0.0, 0.0, 1.6786355897395802E9, 0.0, 2023-03-12 11:39:49.739
146.0, -152749.22880521166, -187500.02235174447, -187500.02235174447, -152269.6497761786, 186633.13229478983, 187500.0, 187500.0, 187500.0, 0.14400000000000002, 0.246, 0.984, 192.0, 4.0, 128.0, 7.0, 176.0, 30.0, 192.0, 0.0, 0.0, 0.0, 1.678635589739594E9, 0.0, 2023-03-12 11:39:49.739
147.0, -152773.4133927123, -187500.02235174447, -187500.02235174447, -152286.16771533104, 186637.73675414763, 187500.0, 187500.0, 187500.0, 0.14400000000000002, 0.246, 0.984, 192.0, 0.0, 0.0, 0.0, 0.0, 0.0, 0.0, 0.0, 0.0, 0.0, 1.6786355897396092E9, 0.0, 2023-03-12 11:39:49.739
148.0, -152640.30875448094, -187500.02235174447, -187500.02235174447, -152096.35670141657, 187006.60759289356, 187500.0, 187500.0, 187500.0, 0.14400000000000002, 0.246, 0.984, 192.0, 0.0, 0.0, 0.0, 0.0, 0.0, 0.0, 0.0, 0.0, 0.0, 1.6786355897396233E9, 0.0, 2023-03-12 11:39:49.739
149.0, -152593.39244286926, -187500.02235174447, -187500.02235174447, -151990.78941235418, 187204.53229004532, 187500.0, 187500.0, 187500.0, 0.14400000000000002, 0.246, 0.984, 192.0, 0.0, 0.0, 0.0, 0.0, 0.0, 0.0, 0.0, 0.0, 0.0, 1.6786355897396376E9, 0.0, 2023-03-12 11:39:49.739
150.0, -152721.46793859816, -187500.02235174447, -187500.02235174447, -152103.77748057575, 187012.84372959659, 187500.0, 187500.0, 187500.0, 0.14400000000000002, 0.246, 0.984, 192.0, 0.0, 0.0, 0.0, 0.0, 0.0, 0.0, 0.0, 0.0, 0.0, 1.678635589739668E9, 0.0, 2023-03-12 11:39:49.739
151.0, -152775.67091890227, -187500.02235174447, -187500.02235174447, -152158.13692309105, 186944.69326075236, 187500.0, 187500.0, 187500.0, 0.14400000000000002, 0.246, 0.984, 192.0, 0.0, 0.0, 0.0, 0.0, 0.0, 0.0, 0.0, 0.0, 0.0, 1.6786355897396824E9, 0.0, 2023-03-12 11:39:49.739
152.0, -152653.45158022066, -187500.02235174447, -187500.02235174447, -151990.65530188743, 187277.51073569187, 187500.0, 187500.0, 187500.0, 0.14400000000000002, 0.246, 0.984, 192.0, 0.0, 0.0, 0.0, 0.0, 0.0, 0.0, 0.0, 0.0, 0.0, 1.6786355897396965E9, 0.0, 2023-03-12 11:39:49.739
153.0, -152573.3652798373, -187500.02235174447, -187500.02235174447, -151849.95107054128, 187500.0, 187500.0, 187500.0, 187500.0, 0.14400000000000002, 0.246, 0.984, 192.0, 0.0, 0.0, 0.0, 0.0, 0.0, 0.0, 0.0, 0.0, 0.0, 1.6786355897397106E9, 0.0, 2023-03-12 11:39:49.739
154.0, -152684.96753990263, -187500.02235174447, -187500.02235174447, -151939.00042045122, 187397.31608597233, 187500.0, 187500.0, 187500.0, 0.14400000000000002, 0.246, 0.984, 192.0, 0.0, 0.0, 0.0, 0.0, 0.0, 0.0, 0.0, 0.0, 0.0, 1.6786355897397249E9, 0.0, 2023-03-12 11:39:49.739
155.0, -152776.90026484733, -187500.02235174447, -187500.02235174447, -152027.55803198315, 187263.74206110742, 187500.0, 187500.0, 187500.0, 0.14400000000000002, 0.246, 0.984, 192.0, 0.0, 0.0, 0.0, 0.0, 0.0, 0.0, 0.0, 0.0, 0.0, 1.6786355897397387E9, 0.0, 2023-03-12 11:39:49.739
156.0, -152679.06667936643, -187500.02235174447, -187500.02235174447, -151888.41842274886, 187500.0, 187500.0, 187500.0, 187500.0, 0.146, 0.25, 0.986, 192.0, 4.0, 144.0, 7.0, 208.0, 30.0, 208.0, 0.0, 0.0, 0.0, 1.6786355897397528E9, 0.0, 2023-03-12 11:39:49.739
157.0, -152567.2185501121, -187500.02235174447, -187500.02235174447, -151715.9076590428, 187500.0, 187500.0, 187500.0, 187500.0, 0.146, 0.25, 0.986, 192.0, 0.0, 0.0, 0.0, 0.0, 0.0, 0.0, 0.0, 0.0, 0.0, 1.678635589739768E9, 0.0, 2023-03-12 11:39:49.739
158.0, -152650.65761216375, -187500.02235174447, -187500.02235174447, -151770.11063934694, 187500.0, 187500.0, 187500.0, 187500.0, 0.146, 0.25, 0.986, 192.0, 0.0, 0.0, 0.0, 0.0, 0.0, 0.0, 0.0, 0.0, 0.0, 1.678635589739782E9, 0.0, 2023-03-12 11:39:49.739
159.0, -152759.84588382792, -187500.02235174447, -187500.02235174447, -151882.47285872375, 187500.0, 187500.0, 187500.0, 187500.0, 0.146, 0.25, 0.986, 192.0, 0.0, 0.0, 0.0, 0.0, 0.0, 0.0, 0.0, 0.0, 0.0, 1.6786355897397964E9, 0.0, 2023-03-12 11:39:49.739
160.0, -152665.76739141555, -187500.02235174447, -187500.02235174447, -151771.5187992476, 187500.0, 187500.0, 187500.0, 187500.0, 0.146, 0.25, 0.986, 192.0, 0.0, 0.0, 0.0, 0.0, 0.0, 0.0, 0.0, 0.0, 0.0, 1.6786355897398105E9, 0.0, 2023-03-12 11:39:49.739
161.0, -152520.12342454476, -187500.02235174447, -187500.02235174447, -151571.0683549724, 187500.0, 187500.0, 187500.0, 187500.0, 0.146, 0.25, 0.986, 192.0, 0.0, 0.0, 0.0, 0.0, 0.0, 0.0, 0.0, 0.0, 0.0, 1.6786355897398243E9, 0.0, 2023-03-12 11:39:49.739
162.0, -152583.89295147575, -187500.02235174447, -187500.02235174447, -151588.7262330921, 187500.0, 187500.0, 187500.0, 187500.0, 0.146, 0.25, 0.986, 192.0, 0.0, 0.0, 0.0, 0.0, 0.0, 0.0, 0.0, 0.0, 0.0, 1.6786355897398381E9, 0.0, 2023-03-12 11:39:49.739
163.0, -152741.18217720775, -187500.02235174447, -187500.02235174447, -151730.1233685164, 187500.0, 187500.0, 187500.0, 187500.0, 0.146, 0.25, 0.986, 192.0, 0.0, 0.0, 0.0, 0.0, 0.0, 0.0, 0.0, 0.0, 0.0, 1.678635589739852E9, 0.0, 2023-03-12 11:39:49.739
164.0, -152713.44366233872, -187500.02235174447, -187500.02235174447, -151676.72505101265, 187500.0, 187500.0, 187500.0, 187500.0, 0.146, 0.25, 0.986, 192.0, 0.0, 0.0, 0.0, 0.0, 0.0, 0.0, 0.0, 0.0, 0.0, 1.678635589739866E9, 0.0, 2023-03-12 11:39:49.739
165.0, -152568.47024780157, -187500.02235174447, -187500.02235174447, -151473.77121135846, 187500.0, 187500.0, 187500.0, 187500.0, 0.146, 0.25, 0.986, 192.0, 0.0, 0.0, 0.0, 0.0, 0.0, 0.0, 0.0, 0.0, 0.0, 1.6786355897398949E9, 0.0, 2023-03-12 11:39:49.739
166.0, -152582.35068110834, -187500.02235174447, -187500.02235174447, -151439.8859667642, 187500.0, 187500.0, 187500.0, 187500.0, 0.146, 0.25, 0.988, 192.0, 4.0, 144.0, 7.0, 208.0, 30.0, 224.0, 0.0, 0.0, 0.0, 1.6786355897399087E9, 0.0, 2023-03-12 11:39:49.739
167.0, -152718.87513624135, -187500.02235174447, -187500.02235174447, -151571.04600322797, 187500.0, 187500.0, 187500.0, 187500.0, 0.146, 0.25, 0.988, 192.0, 0.0, 0.0, 0.0, 0.0, 0.0, 0.0, 0.0, 0.0, 0.0, 1.678635589739924E9, 0.0, 2023-03-12 11:39:49.739
168.0, -152700.07731915443, -187500.02235174447, -187500.02235174447, -151545.27444187098, 187500.0, 187500.0, 187500.0, 187500.0, 0.146, 0.25, 0.988, 192.0, 0.0, 0.0, 0.0, 0.0, 0.0, 0.0, 0.0, 0.0, 0.0, 1.678635589739938E9, 0.0, 2023-03-12 11:39:49.739
169.0, -152536.44019799712, -187500.02235174447, -187500.02235174447, -151335.14569224665, 187500.0, 187500.0, 187500.0, 187500.0, 0.146, 0.25, 0.988, 192.0, 0.0, 0.0, 0.0, 0.0, 0.0, 0.0, 0.0, 0.0, 0.0, 1.678635589739952E9, 0.0, 2023-03-12 11:39:49.739
170.0, -152515.22839250905, -187500.02235174447, -187500.02235174447, -151259.21681633196, 187500.0, 187500.0, 187500.0, 187500.0, 0.146, 0.25, 0.988, 192.0, 0.0, 0.0, 0.0, 0.0, 0.0, 0.0, 0.0, 0.0, 0.0, 1.678635589739966E9, 0.0, 2023-03-12 11:39:49.739
171.0, -152676.20565607617, -187500.02235174447, -187500.02235174447, -151396.6353412432, 187500.0, 187500.0, 187500.0, 187500.0, 0.146, 0.25, 0.988, 192.0, 0.0, 0.0, 0.0, 0.0, 0.0, 0.0, 0.0, 0.0, 0.0, 1.6786355897399805E9, 0.0, 2023-03-12 11:39:49.739
172.0, -152728.68755205724, -187500.02235174447, -187500.02235174447, -151432.4428358606, 187500.0, 187500.0, 187500.0, 187500.0, 0.146, 0.25, 0.988, 192.0, 0.0, 0.0, 0.0, 0.0, 0.0, 0.0, 0.0, 0.0, 0.0, 1.6786355897400095E9, 0.0, 2023-03-12 11:39:49.740
173.0, -152594.35356788084, -187500.02235174447, -187500.02235174447, -151248.37622027114, 187500.0, 187500.0, 187500.0, 187500.0, 0.146, 0.25, 0.988, 192.0, 0.0, 0.0, 0.0, 0.0, 0.0, 0.0, 0.0, 0.0, 0.0, 1.6786355897400284E9, 0.0, 2023-03-12 11:39:49.740
174.0, -152533.26625028448, -187500.02235174447, -187500.02235174447, -151130.18019559147, 187500.0, 187500.0, 187500.0, 187500.0, 0.146, 0.25, 0.988, 192.0, 0.0, 0.0, 0.0, 0.0, 0.0, 0.0, 0.0, 0.0, 0.0, 1.6786355897400427E9, 0.0, 2023-03-12 11:39:49.740
175.0, -152658.36896400084, -187500.02235174447, -187500.02235174447, -151237.75914165488, 187500.0, 187500.0, 187500.0, 187500.0, 0.148, 0.25, 0.986, 192.0, 4.0, 160.0, 7.0, 208.0, 30.0, 208.0, 0.0, 0.0, 0.0, 1.678635589740057E9, 0.0, 2023-03-12 11:39:49.740
176.0, -152716.03646469553, -187500.02235174447, -187500.02235174447, -151297.08067143927, 187500.0, 187500.0, 187500.0, 187500.0, 0.148, 0.25, 0.986, 192.0, 0.0, 0.0, 0.0, 0.0, 0.0, 0.0, 0.0, 0.0, 0.0, 1.6786355897400725E9, 0.0, 2023-03-12 11:39:49.740
177.0, -152574.43816357115, -187500.02235174447, -187500.02235174447, -151123.0276373658, 187500.0, 187500.0, 187500.0, 187500.0, 0.148, 0.25, 0.986, 192.0, 0.0, 0.0, 0.0, 0.0, 0.0, 0.0, 0.0, 0.0, 0.0, 1.6786355897400863E9, 0.0, 2023-03-12 11:39:49.740
178.0, -152476.5822263458, -187500.02235174447, -187500.02235174447, -150966.3419087341, 187500.0, 187500.0, 187500.0, 187500.0, 0.148, 0.25, 0.986, 192.0, 0.0, 0.0, 0.0, 0.0, 0.0, 0.0, 0.0, 0.0, 0.0, 1.6786355897401006E9, 0.0, 2023-03-12 11:39:49.740
179.0, -152599.3156551499, -187500.02235174447, -187500.02235174447, -151053.53606385423, 187500.0, 187500.0, 187500.0, 187500.0, 0.148, 0.25, 0.986, 192.0, 0.0, 0.0, 0.0, 0.0, 0.0, 0.0, 0.0, 0.0, 0.0, 1.6786355897401333E9, 0.0, 2023-03-12 11:39:49.740
180.0, -152720.66327579776, -187500.02235174447, -187500.02235174447, -151160.4668093284, 187500.0, 187500.0, 187500.0, 187500.0, 0.148, 0.25, 0.986, 192.0, 0.0, 0.0, 0.0, 0.0, 0.0, 0.0, 0.0, 0.0, 0.0, 1.678635589740148E9, 0.0, 2023-03-12 11:39:49.740
181.0, -152632.06096077693, -187500.02235174447, -187500.02235174447, -151032.7042380219, 187500.0, 187500.0, 187500.0, 187500.0, 0.148, 0.25, 0.986, 192.0, 0.0, 0.0, 0.0, 0.0, 0.0, 0.0, 0.0, 0.0, 0.0, 1.6786355897401621E9, 0.0, 2023-03-12 11:39:49.740
182.0, -152512.72499713005, -187500.02235174447, -187500.02235174447, -150852.19154980083, 187500.0, 187500.0, 187500.0, 187500.0, 0.148, 0.25, 0.986, 192.0, 0.0, 0.0, 0.0, 0.0, 0.0, 0.0, 0.0, 0.0, 0.0, 1.678635589740176E9, 0.0, 2023-03-12 11:39:49.740
183.0, -152589.30207363394, -187500.02235174447, -187500.02235174447, -150896.7609282447, 187500.0, 187500.0, 187500.0, 187500.0, 0.148, 0.25, 0.986, 192.0, 0.0, 0.0, 0.0, 0.0, 0.0, 0.0, 0.0, 0.0, 0.0, 1.67863558974019E9, 0.0, 2023-03-12 11:39:49.740
184.0, -152702.6924732557, -187500.02235174447, -187500.02235174447, -151016.1862988694, 187500.0, 187500.0, 187500.0, 187500.0, 0.148, 0.25, 0.986, 192.0, 0.0, 0.0, 0.0, 0.0, 0.0, 0.0, 0.0, 0.0, 0.0, 1.6786355897402039E9, 0.0, 2023-03-12 11:39:49.740
185.0, -152615.61007685782, -187500.02235174447, -187500.02235174447, -150916.60927732103, 187500.0, 187500.0, 187500.0, 187500.0, 0.146, 0.248, 0.98, 192.0, 4.0, 144.0, 7.0, 192.0, 30.0, 160.0, 0.0, 0.0, 0.0, 1.678635589740218E9, 0.0, 2023-03-12 11:39:49.740
186.0, -152466.6357000632, -187500.02235174447, -187500.02235174447, -150714.7283214007, 187500.0, 187500.0, 187500.0, 187500.0, 0.146, 0.248, 0.98, 192.0, 0.0, 0.0, 0.0, 0.0, 0.0, 0.0, 0.0, 0.0, 0.0, 1.678635589740233E9, 0.0, 2023-03-12 11:39:49.740
187.0, -152519.60933442228, -187500.02235174447, -187500.02235174447, -150723.19963254925, 187500.0, 187500.0, 187500.0, 187500.0, 0.146, 0.248, 0.98, 192.0, 0.0, 0.0, 0.0, 0.0, 0.0, 0.0, 0.0, 0.0, 0.0, 1.6786355897402475E9, 0.0, 2023-03-12 11:39:49.740
188.0, -152680.1395631003, -187500.02235174447, -187500.02235174447, -150867.10016335253, 187500.0, 187500.0, 187500.0, 187500.0, 0.146, 0.248, 0.98, 192.0, 0.0, 0.0, 0.0, 0.0, 0.0, 0.0, 0.0, 0.0, 0.0, 1.6786355897402616E9, 0.0, 2023-03-12 11:39:49.740
189.0, -152664.15806581476, -187500.02235174447, -187500.02235174447, -150825.36945645447, 187500.0, 187500.0, 187500.0, 187500.0, 0.146, 0.248, 0.98, 192.0, 0.0, 0.0, 0.0, 0.0, 0.0, 0.0, 0.0, 0.0, 0.0, 1.678635589740276E9, 0.0, 2023-03-12 11:39:49.740
190.0, -152518.11176754377, -187500.02235174447, -187500.02235174447, -150623.01911390058, 187500.0, 187500.0, 187500.0, 187500.0, 0.146, 0.248, 0.98, 192.0, 0.0, 0.0, 0.0, 0.0, 0.0, 0.0, 0.0, 0.0, 0.0, 1.67863558974029E9, 0.0, 2023-03-12 11:39:49.740
